  Wavelength(um)        Flux(Jy)
       668.89753       20.806534
       668.45041       21.494433
       668.00388       21.747899
       667.55795       21.761639
       667.11261       21.705015
       666.66787       21.678005
       666.22372       21.698856
       665.78017       21.725658
       665.33720       21.698834
       664.89482       21.583438
       664.45303       21.391808
       664.01182       21.177708
       663.57121       21.007578
       663.13117       20.925787
       662.69172       20.933143
       662.25285       20.990235
       661.81457       21.043305
       661.37686       21.057684
       660.93973       21.039257
       660.50318       21.030905
       660.06720       21.085019
       659.63180       21.225255
       659.19697       21.424431
       658.76272       21.609335
       658.32904       21.694948
       657.89593       21.630969
       657.46338       21.434465
       657.03141       21.187764
       656.60001       20.998738
       656.16917       20.942664
       655.73889       21.018568
       655.30918       21.149648
       654.88003       21.236366
       654.45144       21.241518
       654.02342       21.263950
       653.59595       21.554824
       653.16905       22.451795
       652.74269       24.244204
       652.31690       27.020351
       651.89166       30.566625
       651.46698       34.351731
       651.04284       37.658161
       650.61926       39.784992
       650.19623       40.265153
       649.77375       39.014778
       649.35182       36.356645
       648.93044       32.910040
       648.50960       29.391502
       648.08931       26.403270
       647.66956       24.285730
       647.25036       23.078584
       646.83170       22.588349
       646.41358       22.518664
       645.99600       22.601799
       645.57896       22.680151
       645.16246       22.717272
       644.74649       22.752570
       644.33106       22.836734
       643.91617       22.986144
       643.50181       23.162147
       643.08798       23.305884
       642.67468       23.373241
       642.26192       23.359565
       641.84968       23.299381
       641.43798       23.243320
       641.02680       23.228329
       640.61615       23.259495
       640.20602       23.313094
       639.79642       23.356934
       639.38735       23.373881
       638.97879       23.373539
       638.57076       23.385164
       638.16325       23.436845
       637.75626       23.534445
       637.34978       23.653801
       636.94383       23.751588
       636.53839       23.789343
       636.13347       23.757392
       635.72906       23.677276
       635.32516       23.596609
       634.92178       23.563111
       634.51891       23.599565
       634.11656       23.692931
       633.71471       23.803153
       633.31337       23.886639
       632.91254       23.921413
       632.51221       23.920182
       632.11239       23.924450
       631.71308       23.983170
       631.31427       24.127580
       630.91597       24.355433
       630.51816       24.632222
       630.12086       24.907651
       629.72406       25.137801
       629.32776       25.301273
       628.93195       25.402127
       628.53665       25.460380
       628.14184       25.493536
       627.74753       25.508078
       627.35371       25.497657
       626.96038       25.451349
       626.56755       25.365484
       626.17521       25.250975
       625.78336       25.131488
       625.39200       25.033685
       625.00113       24.975524
       624.61075       24.959611
       624.22085       24.975253
       623.83145       25.007478
       623.44252       25.047149
       623.05409       25.095823
       622.66613       25.162498
       622.27866       25.254562
       621.89167       25.368945
       621.50516       25.489564
       621.11914       25.593409
       620.73359       25.661240
       620.34852       25.689078
       619.96392       25.691528
       619.57981       25.695591
       619.19617       25.727782
       618.81300       25.801148
       618.43031       25.908895
       618.04809       26.027803
       617.66634       26.129400
       617.28507       26.193000
       616.90426       26.214161
       616.52393       26.204941
       616.14406       26.186848
       615.76466       26.180900
       615.38573       26.199991
       615.00726       26.246708
       614.62926       26.316281
       614.25172       26.401496
       613.87465       26.495942
       613.49804       26.597915
       613.12189       26.706080
       612.74621       26.818638
       612.37098       26.933768
       611.99621       27.051537
       611.62190       27.175605
       611.24805       27.312471
       610.87465       27.467430
       610.50171       27.638877
       610.12923       27.814351
       609.75720       27.971482
       609.38562       28.084533
       609.01450       28.134051
       608.64383       28.114937
       608.27361       28.038752
       607.90383       27.928947
       607.53451       27.811542
       607.16564       27.705770
       606.79721       27.618753
       606.42923       27.555020
       606.06170       27.516162
       605.69461       27.507843
       605.32797       27.540456
       604.96177       27.623145
       604.59601       27.755158
       604.23070       27.920324
       603.86583       28.089291
       603.50139       28.229807
       603.13740       28.320434
       602.77384       28.360343
       602.41073       28.369324
       602.04805       28.377176
       601.68580       28.407575
       601.32400       28.464987
       600.96262       28.531982
       600.60169       28.578911
       600.24118       28.580665
       599.88111       28.530845
       599.52147       28.453194
       599.16226       28.386894
       598.80348       28.369973
       598.44513       28.421685
       598.08721       28.533903
       597.72971       28.676535
       597.37265       28.813971
       597.01600       28.923592
       596.65979       29.006305
       596.30400       29.083452
       595.94863       29.181971
       595.59369       29.316108
       595.23917       29.475880
       594.88507       29.628828
       594.53140       29.734412
       594.17814       29.763626
       593.82530       29.713714
       593.47288       29.610107
       593.12088       29.494224
       592.76930       29.411292
       592.41813       29.387507
       592.06738       29.424121
       591.71705       29.502296
       591.36712       29.595466
       591.01762       29.682455
       590.66852       29.754861
       590.31984       29.816255
       589.97157       29.875540
       589.62371       29.939563
       589.27626       30.009527
       588.92922       30.082517
       588.58258       30.155883
       588.23636       30.230530
       587.89054       30.310309
       587.54513       30.397739
       587.20012       30.489180
       586.85552       30.572878
       586.51132       30.631382
       586.16753       30.654933
       585.82414       30.642612
       585.48115       30.605896
       585.13857       30.564810
       584.79638       30.539077
       584.45459       30.539491
       584.11321       30.564327
       583.77222       30.602741
       583.43163       30.642982
       583.09143       30.680392
       582.75164       30.720228
       582.41224       30.773437
       582.07323       30.847795
       581.73462       30.939821
       581.39640       31.032637
       581.05858       31.101714
       580.72114       31.125852
       580.38410       31.097483
       580.04745       31.026501
       579.71119       30.938059
       579.37532       30.860115
       579.03984       30.812933
       578.70475       30.803448
       578.37005       30.827103
       578.03573       30.875249
       577.70180       30.942888
       577.36825       31.031595
       577.03509       31.145674
       576.70231       31.284121
       576.36992       31.433923
       576.03791       31.569898
       575.70628       31.662667
       575.37503       31.691511
       575.04417       31.655545
       574.71368       31.576944
       574.38358       31.493695
       574.05385       31.444780
       573.72450       31.454651
       573.39553       31.523338
       573.06694       31.628631
       572.73872       31.736874
       572.41088       31.817838
       572.08341       31.856657
       571.75632       31.857878
       571.42960       31.840908
       571.10326       31.830149
       570.77729       31.844890
       570.45169       31.893087
       570.12646       31.970456
       569.80160       32.063578
       569.47711       32.154544
       569.15299       32.225189
       568.82924       32.260414
       568.50586       32.251150
       568.18285       32.197332
       567.86020       32.110244
       567.53792       32.012649
       567.21600       31.932792
       566.89445       31.898324
       566.57326       31.927004
       566.25244       32.020601
       565.93198       32.165111
       565.61188       32.337494
       565.29215       32.515809
       564.97277       32.687502
       564.65376       32.851432
       564.33511       33.012648
       564.01681       33.173240
       563.69888       33.325202
       563.38130       33.450416
       563.06408       33.528853
       562.74722       33.550990
       562.43071       33.527279
       562.11456       33.488322
       561.79877       33.474286
       561.48333       33.518188
       561.16824       33.627451
       560.85351       33.781694
       560.53913       33.940247
       560.22510       34.059867
       559.91143       34.113567
       559.59810       34.100917
       559.28513       34.044929
       558.97250       33.977817
       558.66023       33.923786
       558.34830       33.888362
       558.03672       33.859773
       557.72549       33.820919
       557.41461       33.764360
       557.10407       33.701109
       556.79388       33.657630
       556.48403       33.662370
       556.17453       33.729347
       555.86537       33.848519
       555.55656       33.989229
       555.24809       34.110155
       554.93996       34.181645
       554.63217       34.197548
       554.32473       34.175521
       554.01762       34.145644
       553.71086       34.133699
       553.40443       34.148380
       553.09835       34.179107
       552.79260       34.204861
       552.48719       34.208226
       552.18211       34.186243
       551.87738       34.151981
       551.57298       34.126535
       551.26891       34.126845
       550.96518       34.156968
       550.66179       34.208005
       550.35873       34.266325
       550.05600       34.324689
       549.75361       34.389168
       549.45154       34.473667
       549.14981       34.592137
       548.84841       34.745961
       548.54734       34.917854
       548.24661       35.076472
       547.94620       35.189840
       547.64612       35.240762
       547.34636       35.236010
       547.04694       35.204473
       546.74784       35.185465
       546.44908       35.213531
       546.15063       35.307459
       545.85252       35.468000
       545.55472       35.683374
       545.25726       35.937208
       544.96011       36.213031
       544.66329       36.492886
       544.36680       36.752892
       544.07062       36.961767
       543.77477       37.083486
       543.47924       37.092157
       543.18403       36.984876
       542.88915       36.787559
       542.59458       36.547950
       542.30033       36.317264
       542.00640       36.129529
       541.71279       35.990651
       541.41950       35.885062
       541.12652       35.798093
       540.83386       35.742065
       540.54152       35.769633
       540.24949       35.962573
       539.95778       36.396461
       539.66638       37.095609
       539.37530       38.000513
       539.08453       38.966976
       538.79408       39.802739
       538.50394       40.329770
       538.21411       40.443847
       537.92459       40.152687
       537.63538       39.569591
       537.34648       38.868961
       537.05790       38.223586
       536.76962       37.750513
       536.48166       37.486482
       536.19400       37.398537
       535.90665       37.418873
       535.61961       37.483516
       535.33287       37.556146
       535.04645       37.629294
       534.76033       37.708489
       534.47451       37.793298
       534.18900       37.868542
       533.90379       37.910570
       533.61889       37.903050
       533.33430       37.850775
       533.05000       37.781661
       532.76601       37.732682
       532.48233       37.732336
       532.19894       37.785769
       531.91586       37.873586
       531.63307       37.964668
       531.35059       38.034756
       531.06841       38.079257
       530.78652       38.112579
       530.50494       38.154914
       530.22365       38.215529
       529.94266       38.283931
       529.66197       38.335340
       529.38158       38.347583
       529.10149       38.318752
       528.82169       38.273691
       528.54218       38.253872
       528.26297       38.295536
       527.98406       38.408988
       527.70544       38.572137
       527.42711       38.742473
       527.14908       38.882689
       526.87134       38.982953
       526.59390       39.066305
       526.31674       39.172671
       526.03988       39.330409
       525.76331       39.533120
       525.48702       39.737519
       525.21103       39.885782
       524.93533       39.939979
       524.65992       39.906695
       524.38480       39.833820
       524.10996       39.777920
       523.83542       39.760887
       523.56116       39.746180
       523.28718       39.658974
       523.01350       39.451362
       522.74010       39.184296
       522.46698       39.078823
       522.19416       39.494170
       521.92161       40.817454
       521.64935       43.296782
       521.37738       46.883085
       521.10568       51.155962
       520.83427       55.382598
       520.56315       58.706018
       520.29230       60.402191
       520.02174       60.111192
       519.75146       57.952785
       519.48146       54.480945
       519.21174       50.495969
       518.94230       46.788835
       518.67314       43.915717
       518.40426       42.081925
       518.13565       41.164034
       517.86733       40.840721
       517.59928       40.762894
       517.33151       40.688187
       517.06402       40.535210
       516.79680       40.349270
       516.52986       40.221413
       516.26319       40.209896
       515.99680       40.303775
       515.73069       40.438680
       515.46485       40.544899
       515.19928       40.593262
       514.93399       40.610584
       514.66897       40.657683
       514.40422       40.785893
       514.13975       40.999638
       513.87554       41.247615
       513.61161       41.447430
       513.34795       41.529149
       513.08456       41.473015
       512.82144       41.320706
       512.55859       41.154568
       512.29601       41.056619
       512.03370       41.074793
       511.77165       41.202366
       511.50988       41.390329
       511.24837       41.578256
       510.98713       41.725961
       510.72615       41.829573
       510.46545       41.915498
       510.20500       42.018481
       509.94483       42.157932
       509.68492       42.325979
       509.42527       42.492607
       509.16589       42.622958
       508.90677       42.695547
       508.64792       42.710949
       508.38933       42.687316
       508.13100       42.647304
       507.87293       42.605632
       507.61513       42.564775
       507.35759       42.520152
       507.10031       42.474304
       506.84329       42.440745
       506.58653       42.442709
       506.33003       42.502454
       506.07379       42.627752
       505.81781       42.804249
       505.56209       42.998941
       505.30662       43.173511
       505.05142       43.300436
       504.79647       43.373120
       504.54178       43.404814
       504.28735       43.417621
       504.03317       43.428550
       503.77925       43.440991
       503.52558       43.446377
       503.27217       43.434422
       503.01902       43.405016
       502.76612       43.373646
       502.51347       43.366078
       502.26108       43.407384
       502.00894       43.505998
       501.75705       43.647723
       501.50542       43.801007
       501.25404       43.931264
       501.00291       44.016782
       500.75203       44.057729
       500.50141       44.073664
       500.25103       44.091402
       500.00090       44.130279
       499.75103       44.192993
       499.50140       44.266622
       499.25203       44.332460
       499.00290       44.378325
       498.75402       44.405979
       498.50539       44.429491
       498.25700       44.465933
       498.00887       44.524173
       497.76098       44.598438
       497.51334       44.671796
       497.26594       44.724435
       497.01879       44.744797
       496.77189       44.735831
       496.52523       44.713211
       496.27881       44.697115
       496.03264       44.702653
       495.78672       44.734404
       495.54103       44.787631
       495.29560       44.854490
       495.05040       44.930598
       494.80545       45.017467
       494.56074       45.119349
       494.31627       45.236915
       494.07204       45.362480
       493.82805       45.480621
       493.58431       45.574563
       493.34080       45.634892
       493.09754       45.665322
       492.85451       45.681005
       492.61173       45.701417
       492.36918       45.740364
       492.12687       45.799738
       491.88480       45.870821
       491.64297       45.942336
       491.40138       46.010168
       491.16002       46.082292
       490.91890       46.175050
       490.67802       46.302192
       490.43738       46.462894
       490.19696       46.636396
       489.95679       46.787711
       489.71685       46.882756
       489.47715       46.905505
       489.23768       46.867837
       488.99844       46.806015
       488.75944       46.764721
       488.52067       46.776449
       488.28213       46.844613
       488.04383       46.943873
       487.80576       47.033177
       487.56792       47.077084
       487.33032       47.064240
       487.09294       47.013410
       486.85580       46.964089
       486.61888       46.956755
       486.38220       47.013052
       486.14575       47.125984
       485.90953       47.264718
       485.67353       47.390931
       485.43777       47.477853
       485.20224       47.522241
       484.96693       47.543682
       484.73185       47.572450
       484.49700       47.632863
       484.26238       47.731051
       484.02798       47.853185
       483.79381       47.970301
       483.55987       48.054486
       483.32615       48.089836
       483.09266       48.077115
       482.85940       48.030896
       482.62636       47.972051
       482.39354       47.920291
       482.16095       47.890234
       481.92858       47.891479
       481.69644       47.930487
       481.46452       48.011348
       481.23282       48.134051
       481.00135       48.291309
       480.77010       48.466766
       480.53907       48.637043
       480.30827       48.777940
       480.07768       48.872403
       479.84732       48.916678
       479.61717       48.921827
       479.38725       48.905340
       479.15755       48.886733
       478.92807       48.879708
       478.69881       48.888975
       478.46976       48.912205
       478.24094       48.944858
       478.01234       48.984486
       477.78395       49.031946
       477.55578       49.089226
       477.32783       49.155951
       477.10010       49.227431
       476.87258       49.296006
       476.64528       49.355030
       476.41820       49.402926
       476.19134       49.444412
       475.96469       49.487769
       475.73825       49.539586
       475.51203       49.600526
       475.28603       49.665420
       475.06024       49.724049
       474.83467       49.770866
       474.60931       49.809150
       474.38416       49.850531
       474.15923       49.909122
       473.93451       49.992956
       473.71000       50.097750
       473.48570       50.207096
       473.26162       50.299789
       473.03775       50.360808
       472.81409       50.390035
       472.59065       50.403628
       472.36741       50.426776
       472.14439       50.481288
       471.92157       50.574489
       471.69897       50.695345
       471.47657       50.819915
       471.25439       50.923402
       471.03241       50.992625
       470.81064       51.028465
       470.58909       51.045621
       470.36774       51.062142
       470.14660       51.088896
       469.92566       51.124762
       469.70494       51.159900
       469.48442       51.184712
       469.26411       51.198705
       469.04400       51.213496
       468.82410       51.247765
       468.60441       51.316901
       468.38492       51.423495
       468.16564       51.554591
       467.94656       51.687799
       467.72769       51.803128
       467.50903       51.893878
       467.29056       51.970155
       467.07231       52.052666
       466.85425       52.160045
       466.63640       52.296124
       466.41875       52.445803
       466.20131       52.580879
       465.98407       52.673599
       465.76703       52.710732
       465.55019       52.700540
       465.33355       52.668998
       465.11712       52.647384
       464.90089       52.658019
       464.68485       52.705605
       464.46902       52.778285
       464.25339       52.856947
       464.03796       52.926906
       463.82273       52.985160
       463.60770       53.039527
       463.39287       53.101046
       463.17823       53.175068
       462.96380       53.256991
       462.74956       53.335448
       462.53553       53.401596
       462.32169       53.456909
       462.10804       53.515383
       461.89460       53.597116
       461.68135       53.716311
       461.46830       53.870523
       461.25545       54.037854
       461.04279       54.184723
       460.83033       54.280955
       460.61806       54.314594
       460.40599       54.298586
       460.19411       54.265522
       459.98243       54.252887
       459.77095       54.286248
       459.55965       54.368823
       459.34856       54.482375
       459.13765       54.598346
       458.92694       54.692788
       458.71643       54.756976
       458.50610       54.800642
       458.29597       54.842729
       458.08603       54.899923
       457.87629       54.977707
       457.66673       55.068851
       457.45737       55.159578
       457.24820       55.239156
       457.03922       55.306929
       456.83043       55.372719
       456.62183       55.450633
       456.41342       55.550225
       456.20520       55.670367
       455.99718       55.799427
       455.78934       55.921570
       455.58169       56.025505
       455.37423       56.110758
       455.16696       56.188114
       454.95988       56.274248
       454.75298       56.383575
       454.54628       56.521237
       454.33976       56.680719
       454.13343       56.845891
       453.92728       56.995867
       453.72133       57.110130
       453.51556       57.172341
       453.30998       57.172841
       453.10458       57.110675
       452.89937       56.995522
       452.69434       56.848523
       452.48951       56.700107
       452.28485       56.583565
       452.08038       56.525326
       451.87610       56.535567
       451.67200       56.603918
       451.46808       56.703470
       451.26435       56.802457
       451.06081       56.878628
       450.85744       56.929261
       450.65426       56.970800
       450.45126       57.028769
       450.24845       57.121974
       450.04582       57.250039
       449.84337       57.391496
       449.64110       57.514184
       449.43901       57.592815
       449.23711       57.624176
       449.03539       57.631169
       448.83385       57.652669
       448.63248       57.724022
       448.43130       57.858453
       448.23030       58.039609
       448.02948       58.229630
       447.82884       58.388689
       447.62838       58.495488
       447.42810       58.557523
       447.22800       58.605533
       447.02808       58.675366
       446.82833       58.786755
       446.62877       58.932544
       446.42938       59.082867
       446.23017       59.202539
       446.03114       59.271569
       445.83228       59.296917
       445.63360       59.308680
       445.43510       59.342878
       445.23678       59.420782
       445.03863       59.536799
       444.84066       59.662001
       444.64287       59.761300
       444.44525       59.814310
       444.24780       59.827680
       444.05054       59.831570
       443.85344       59.862158
       443.65653       59.940245
       443.45978       60.058474
       443.26321       60.184811
       443.06682       60.279219
       442.87060       60.316590
       442.67455       60.300258
       442.47868       60.259688
       442.28298       60.233890
       442.08745       60.250346
       441.89209       60.311743
       441.69691       60.397852
       441.50190       60.480695
       441.30706       60.543192
       441.11240       60.589552
       440.91790       60.641076
       440.72358       60.720276
       440.52943       60.833782
       440.33545       60.965421
       440.14164       61.084574
       439.94800       61.165058
       439.75453       61.202410
       439.56123       61.217652
       439.36811       61.247685
       439.17515       61.319736
       438.98236       61.433537
       438.78974       61.559829
       438.59728       61.658108
       438.40500       61.704059
       438.21289       61.709457
       438.02094       61.720322
       437.82916       61.791655
       437.63755       61.952139
       437.44611       62.180440
       437.25484       62.410113
       437.06373       62.564020
       436.87279       62.600266
       436.68201       62.541712
       436.49140       62.467502
       436.30096       62.466307
       436.11069       62.575725
       435.92058       62.746202
       435.73064       62.867552
       435.54086       62.844011
       435.35124       62.700546
       435.16180       62.655528
       434.97251       63.106062
       434.78339       64.506925
       434.59444       67.175575
       434.40565       71.100064
       434.21702       75.839900
       434.02856       80.581212
       433.84026       84.346491
       433.65213       86.291686
       433.46416       85.980637
       433.27635       83.529915
       433.08870       79.566509
       432.90122       75.015556
       432.71389       70.802502
       432.52673       67.583825
       432.33974       65.601679
       432.15290       64.709177
       431.96622       64.514722
       431.77971       64.586989
       431.59336       64.621717
       431.40716       64.511906
       431.22113       64.314620
       431.03526       64.154151
       430.84955       64.122330
       430.66400       64.225564
       430.47861       64.394818
       430.29338       64.539130
       430.10830       64.603606
       429.92339       64.597178
       429.73864       64.577947
       429.55404       64.610086
       429.36960       64.721254
       429.18533       64.886073
       429.00120       65.042953
       428.81724       65.130858
       428.63344       65.131687
       428.44979       65.074018
       428.26630       65.016612
       428.08297       65.014048
       427.89979       65.086448
       427.71677       65.211274
       427.53391       65.340641
       427.35120       65.432327
       427.16865       65.475157
       426.98625       65.493761
       426.80402       65.530755
       426.62193       65.618074
       426.44000       65.755396
       426.25823       65.908876
       426.07661       66.030836
       425.89515       66.088411
       425.71384       66.083829
       425.53268       66.053004
       425.35168       66.041452
       425.17084       66.090384
       424.99014       66.201245
       424.80960       66.339451
       424.62922       66.456381
       424.44898       66.518554
       424.26890       66.528102
       424.08898       66.522679
       423.90920       66.554738
       423.72958       66.661892
       423.55011       66.844995
       423.37079       67.066088
       423.19162       67.267068
       423.01261       67.398541
       422.83375       67.443102
       422.65503       67.421051
       422.47647       67.376779
       422.29806       67.354744
       422.11980       67.378302
       421.94169       67.441525
       421.76373       67.528742
       421.58592       67.623062
       421.40826       67.722578
       421.23075       67.842202
       421.05339       68.001324
       420.87618       68.206091
       420.69912       68.437940
       420.52221       68.656408
       420.34544       68.815740
       420.16883       68.886522
       419.99236       68.870324
       419.81604       68.799129
       419.63987       68.719812
       419.46385       68.672176
       419.28797       68.672412
       419.11224       68.710356
       418.93666       68.760903
       418.76123       68.801458
       418.58594       68.824063
       418.41080       68.845231
       418.23580       68.887875
       418.06096       68.967657
       417.88625       69.082839
       417.71170       69.214768
       417.53729       69.339128
       417.36303       69.440820
       417.18891       69.523134
       417.01493       69.605332
       416.84110       69.709866
       416.66742       69.846837
       416.49388       70.005278
       416.32049       70.157029
       416.14724       70.271670
       415.97413       70.334395
       415.80117       70.356654
       415.62835       70.373131
       415.45567       70.425733
       415.28314       70.542154
       415.11075       70.726855
       414.93851       70.954776
       414.76641       71.185164
       414.59445       71.381481
       414.42263       71.527685
       414.25096       71.633277
       414.07942       71.725363
       413.90803       71.832688
       413.73678       71.970326
       413.56568       72.132698
       413.39471       72.297768
       413.22389       72.439437
       413.05320       72.541403
       412.88266       72.605774
       412.71226       72.652893
       412.54200       72.713263
       412.37188       72.815710
       412.20190       72.976628
       412.03206       73.193796
       411.86236       73.448716
       411.69280       73.710424
       411.52338       73.945185
       411.35410       74.127101
       411.18495       74.247120
       411.01595       74.317733
       410.84709       74.370812
       410.67836       74.447689
       410.50977       74.583586
       410.34132       74.791813
       410.17301       75.054938
       410.00484       75.328580
       409.83681       75.558412
       409.66891       75.704379
       409.50115       75.761265
       409.33353       75.764788
       409.16604       75.778280
       408.99869       75.864879
       408.83148       76.058527
       408.66441       76.339029
       408.49747       76.645006
       408.33067       76.900009
       408.16400       77.049225
       407.99747       77.087837
       407.83108       77.065472
       407.66482       77.063178
       407.49870       77.153414
       407.33271       77.362748
       407.16686       77.656338
       407.00114       77.952704
       406.83556       78.162014
       406.67011       78.228975
       406.50480       78.158862
       406.33962       78.013768
       406.17458       77.881337
       406.00967       77.832247
       405.84489       77.888826
       405.68025       78.021286
       405.51574       78.160450
       405.35136       78.244806
       405.18712       78.250996
       405.02301       78.203751
       404.85903       78.159861
       404.69519       78.175111
       404.53148       78.272488
       404.36790       78.428649
       404.20445       78.585355
       404.04113       78.679099
       403.87795       78.672892
       403.71490       78.573760
       403.55198       78.427818
       403.38919       78.296806
       403.22654       78.229210
       403.06401       78.240662
       402.90161       78.312153
       402.73935       78.405347
       402.57722       78.486190
       402.41521       78.529472
       402.25334       78.534704
       402.09160       78.516759
       401.92999       78.493820
       401.76850       78.479585
       401.60715       78.482555
       401.44593       78.510111
       401.28483       78.571502
       401.12387       78.675084
       400.96303       78.820357
       400.80233       78.990784
       400.64175       79.155018
       400.48130       79.280174
       400.32098       79.353018
       400.16079       79.398093
       400.00072       79.480513
       399.84079       79.687232
       399.68098       80.092718
       399.52130       80.725065
       399.36174       81.527937
       399.20232       82.383943
       399.04302       83.145707
       398.88385       83.683123
       398.72480       83.924863
       398.56589       83.875440
       398.40709       83.602226
       398.24843       83.201196
       398.08989       82.759549
       397.93148       82.333022
       397.77319       81.946083
       397.61503       81.609931
       397.45700       81.343533
       397.29909       81.182274
       397.14131       81.167191
       396.98365       81.320363
       396.82611       81.621544
       396.66871       82.002480
       396.51142       82.366832
       396.35426       82.620011
       396.19723       82.714835
       396.04032       82.670984
       395.88353       82.566325
       395.72687       82.502254
       395.57034       82.558333
       395.41392       82.757423
       395.25763       83.057447
       395.10146       83.372987
       394.94542       83.615691
       394.78950       83.733973
       394.63370       83.733722
       394.47803       83.671555
       394.32248       83.625484
       394.16705       83.657992
       394.01174       83.788906
       393.85656       83.989570
       393.70150       84.199194
       393.54656       84.354205
       393.39174       84.414913
       393.23705       84.381158
       393.08247       84.288285
       392.92802       84.188602
       392.77369       84.127633
       392.61948       84.125624
       392.46539       84.171396
       392.31142       84.229839
       392.15757       84.258811
       392.00384       84.228014
       391.85024       84.132375
       391.69675       83.995034
       391.54339       83.859087
       391.39014       83.771323
       391.23701       83.764078
       391.08401       83.842207
       390.93112       83.980510
       390.77835       84.133080
       390.62571       84.251266
       390.47318       84.306393
       390.32077       84.301009
       390.16848       84.270044
       390.01631       84.267527
       389.86425       84.344216
       389.71232       84.525784
       389.56050       84.801259
       389.40880       85.126998
       389.25722       85.444380
       389.10576       85.703012
       388.95442       85.878763
       388.80319       85.978699
       388.65208       86.031714
       388.50109       86.070726
       388.35022       86.116224
       388.19946       86.169506
       388.04882       86.218172
       387.89830       86.248872
       387.74789       86.258111
       387.59760       86.264470
       387.44743       86.293359
       387.29737       86.364921
       387.14743       86.482342
       386.99760       86.628725
       386.84789       86.775428
       386.69830       86.897420
       386.54882       86.986994
       386.39946       87.057994
       386.25022       87.138049
       386.10108       87.253244
       385.95207       87.413960
       385.80317       87.609915
       385.65438       87.817044
       385.50571       88.011922
       385.35715       88.185067
       385.20871       88.345225
       385.06038       88.511575
       384.91217       88.697761
       384.76407       88.907206
       384.61608       89.122048
       384.46821       89.313269
       384.32045       89.456497
       384.17280       89.545093
       384.02527       89.593351
       383.87785       89.628003
       383.73055       89.673246
       383.58336       89.738471
       383.43628       89.816209
       383.28931       89.891431
       383.14246       89.956109
       382.99571       90.019185
       382.84908       90.104502
       382.70257       90.236475
       382.55616       90.421311
       382.40987       90.635365
       382.26369       90.829017
       382.11762       90.945922
       381.97166       90.954092
       381.82581       90.861297
       381.68008       90.716863
       381.53446       90.592170
       381.38894       90.548981
       381.24354       90.611385
       381.09825       90.755400
       380.95307       90.921468
       380.80800       91.043503
       380.66304       91.079934
       380.51819       91.031667
       380.37345       90.939028
       380.22882       90.860615
       380.08431       90.845609
       379.93990       90.913262
       379.79560       91.048291
       379.65141       91.212086
       379.50733       91.361954
       379.36336       91.468030
       379.21949       91.522677
       379.07574       91.536911
       378.93210       91.532639
       378.78856       91.534405
       378.64514       91.563950
       378.50182       91.637120
       378.35861       91.760687
       378.21551       91.928003
       378.07252       92.115799
       377.92963       92.286749
       377.78686       92.400912
       377.64419       92.433951
       377.50163       92.393917
       377.35917       92.325945
       377.21683       92.298222
       377.07459       92.372145
       376.93246       92.569760
       376.79043       92.856305
       376.64852       93.150602
       376.50670       93.356337
       376.36500       93.412701
       376.22340       93.326419
       376.08191       93.171974
       375.94053       93.056449
       375.79925       93.064811
       375.65808       93.213985
       375.51701       93.441406
       375.37605       93.636506
       375.23520       93.700318
       375.09445       93.601906
       374.95381       93.400290
       374.81327       93.218189
       374.67284       93.180061
       374.53251       93.347401
       374.39229       93.686833
       374.25217       94.088992
       374.11216       94.428113
       373.97225       94.628783
       373.83245       94.690624
       373.69275       94.677351
       373.55316       94.657346
       373.41367       94.646511
       373.27428       94.597328
       373.13500       94.454349
       372.99583       94.255557
       372.85675       94.222347
       372.71778       94.771528
       372.57892       96.410837
       372.44015       99.535450
       372.30149       104.20069
       372.16294       109.97503
       372.02448       115.95883
       371.88613       120.99116
       371.74788       123.98618
       371.60974       124.27839
       371.47170       121.84407
       371.33376       117.31091
       371.19592       111.74071
       371.05818       106.29515
       370.92055       101.88908
       370.78302       98.969318
       370.64559       97.484814
       370.50827       97.031652
       370.37104       97.088785
       370.23392       97.235824
       370.09689       97.269567
       369.95997       97.194449
       369.82315       97.122714
       369.68644       97.154479
       369.54982       97.302949
       369.41330       97.494018
       369.27689       97.624567
       369.14057       97.634258
       369.00436       97.544834
       368.86824       97.446012
       368.73223       97.440796
       368.59632       97.579485
       368.46050       97.833943
       368.32479       98.113250
       368.18918       98.315435
       368.05367       98.383821
       367.91825       98.335849
       367.78294       98.249923
       367.64772       98.220044
       367.51261       98.305244
       367.37759       98.501723
       367.24268       98.751011
       367.10786       98.976440
       366.97314       99.125278
       366.83852       99.192744
       366.70400       99.216582
       366.56958       99.248638
       366.43525       99.322437
       366.30103       99.436226
       366.16690       99.559996
       366.03287       99.658702
       365.89894       99.717518
       365.76511       99.750824
       365.63137       99.790797
       365.49774       99.863782
       365.36420       99.970411
       365.23076       100.08300
       365.09741       100.16258
       364.96416       100.18532
       364.83101       100.16133
       364.69796       100.13331
       364.56500       100.15395
       364.43215       100.25470
       364.29938       100.42402
       364.16672       100.60904
       364.03415       100.74113
       363.90168       100.77235
       363.76930       100.70247
       363.63702       100.58089
       363.50484       100.48754
       363.37275       100.48997
       363.24076       100.61212
       363.10886       100.82500
       362.97706       101.06428
       362.84536       101.26473
       362.71375       101.39281
       362.58224       101.46035
       362.45082       101.51338
       362.31950       101.60378
       362.18827       101.76011
       362.05714       101.97359
       361.92610       102.20534
       361.79515       102.40937
       361.66431       102.55704
       361.53355       102.64938
       361.40289       102.71135
       361.27233       102.77264
       361.14186       102.84625
       361.01148       102.92760
       360.88120       102.99320
       360.75101       103.01935
       360.62092       102.99924
       360.49092       102.94872
       360.36101       102.89800
       360.23120       102.87441
       360.10148       102.88680
       359.97185       102.92085
       359.84232       102.94795
       359.71288       102.94242
       359.58353       102.89704
       359.45428       102.82812
       359.32512       102.76789
       359.19605       102.74884
       359.06708       102.78928
       358.93819       102.88758
       358.80940       103.02654
       358.68071       103.18312
       358.55210       103.34495
       358.42359       103.50632
       358.29517       103.66476
       358.16684       103.81401
       358.03860       103.94031
       357.91045       104.02649
       357.78240       104.06194
       357.65444       104.05191
       357.52657       104.01927
       357.39879       103.99555
       357.27110       104.00515
       357.14350       104.05117
       357.01600       104.11173
       356.88858       104.15002
       356.76126       104.13411
       356.63403       104.05616
       356.50688       103.94044
       356.37983       103.83490
       356.25287       103.78901
       356.12600       103.83554
       355.99922       103.97171
       355.87253       104.16317
       355.74593       104.36249
       355.61942       104.53323
       355.49300       104.66781
       355.36667       104.79063
       355.24043       104.94523
       355.11428       105.17239
       354.98822       105.48972
       354.86225       105.88201
       354.73636       106.30587
       354.61057       106.70567
       354.48487       107.03339
       354.35925       107.26462
       354.23373       107.40563
       354.10829       107.49020
       353.98294       107.56842
       353.85768       107.69093
       353.73251       107.89148
       353.60743       108.17438
       353.48243       108.50872
       353.35753       108.83398
       353.23271       109.07805
       353.10798       109.18401
       352.98334       109.13668
       352.85879       108.97709
       352.73432       108.79516
       352.60995       108.69901
       352.48566       108.77047
       352.36145       109.02543
       352.23734       109.39867
       352.11331       109.76442
       351.98937       109.98788
       351.86552       109.98689
       351.74175       109.77533
       351.61808       109.46615
       351.49448       109.22950
       351.37098       109.21119
       351.24756       109.47158
       351.12423       109.95055
       351.00099       110.48795
       350.87783       110.89174
       350.75476       111.02308
       350.63177       110.85924
       350.50887       110.50433
       350.38606       110.14218
       350.26333       109.95259
       350.14069       110.02965
       350.01813       110.33986
       349.89566       110.73903
       349.77328       111.03938
       349.65098       111.09535
       349.52877       110.86861
       349.40664       110.44347
       349.28460       109.98780
       349.16264       109.67949
       349.04077       109.62331
       348.91898       109.81439
       348.79728       110.14226
       348.67567       110.44030
       348.55413       110.55620
       348.43269       110.41250
       348.31132       110.03348
       348.19004       109.53008
       348.06885       109.05249
       347.94774       108.73146
       347.82672       108.63166
       347.70577       108.73359
       347.58492       108.94817
       347.46414       109.15598
       347.34346       109.25495
       347.22285       109.19862
       347.10233       109.01144
       346.98189       108.77685
       346.86154       108.60376
       346.74126       108.57793
       346.62108       108.73231
       346.50097       109.03329
       346.38095       109.39574
       346.26101       109.72045
       346.14116       109.93791
       346.02139       110.03898
       345.90170       110.07789
       345.78209       110.14536
       345.66257       110.32337
       345.54313       110.64300
       345.42377       111.06614
       345.30449       111.50141
       345.18530       111.84781
       345.06619       112.04533
       344.94716       112.10719
       344.82821       112.11635
       344.70934       112.18631
       344.59056       112.40425
       344.47186       112.78816
       344.35324       113.27287
       344.23470       113.74033
       344.11624       114.07665
       343.99787       114.22800
       343.87958       114.22741
       343.76136       114.17868
       343.64323       114.20523
       343.52518       114.38944
       343.40721       114.73299
       343.28933       115.15782
       343.17152       115.54661
       343.05379       115.80189
       342.93615       115.89360
       342.81858       115.87167
       342.70110       115.83819
       342.58370       115.89457
       342.46637       116.08974
       342.34913       116.39359
       342.23197       116.72859
       342.11488       116.99693
       341.99788       117.13372
       341.88096       117.13883
       341.76412       117.07458
       341.64735       117.03357
       341.53067       117.09408
       341.41407       117.28523
       341.29755       117.57745
       341.18110       117.90039
       341.06474       118.17718
       340.94845       118.35767
       340.83225       118.43581
       340.71612       118.44573
       340.60007       118.44133
       340.48410       118.47068
       340.36821       118.55668
       340.25240       118.68887
       340.13667       118.82466
       340.02102       118.92608
       339.90544       118.95352
       339.78994       118.88399
       339.67453       118.72066
       339.55919       118.49394
       339.44393       118.25504
       339.32874       118.06239
       339.21364       117.96342
       339.09861       117.97703
       338.98366       118.08378
       338.86879       118.22994
       338.75400       118.34636
       338.63928       118.37645
       338.52465       118.30173
       338.41009       118.15291
       338.29560       117.99967
       338.18120       117.92219
       338.06687       117.97446
       337.95262       118.15347
       337.83845       118.42354
       337.72435       118.70929
       337.61033       118.93601
       337.49639       119.06375
       337.38253       119.10250
       337.26874       119.10397
       337.15503       119.13562
       337.04139       119.25020
       336.92783       119.46533
       336.81435       119.76093
       336.70095       120.09278
       336.58762       120.41301
       336.47436       120.68651
       336.36119       120.89704
       336.24809       121.04366
       336.13506       121.13371
       336.02211       121.17852
       335.90924       121.19121
       335.79644       121.18031
       335.68372       121.18979
       335.57108       121.24896
       335.45851       121.36803
       335.34601       121.53087
       335.23359       121.69601
       335.12125       121.81221
       335.00898       121.84281
       334.89679       121.78704
       334.78467       121.68573
       334.67263       121.60615
       334.56066       121.61189
       334.44877       121.73214
       334.33695       121.94659
       334.22520       122.19415
       334.11353       122.40167
       334.00194       122.51773
       333.89042       122.53430
       333.77897       122.48410
       333.66760       122.41442
       333.55631       122.37709
       333.44508       122.38823
       333.33394       122.43131
       333.22286       122.47546
       333.11186       122.49837
       333.00094       122.50036
       332.89008       122.50141
       332.77930       122.52411
       332.66860       122.57517
       332.55797       122.63874
       332.44741       122.68725
       332.33693       122.70293
       332.22651       122.69529
       332.11618       122.70095
       332.00591       122.76308
       331.89572       122.90158
       331.78560       123.09319
       331.67556       123.27750
       331.56559       123.38982
       331.45569       123.39816
       331.34586       123.33482
       331.23611       123.28708
       331.12643       123.35278
       331.01682       123.58202
       330.90728       123.93756
       330.79782       124.30083
       330.68843       124.52690
       330.57911       124.52352
       330.46986       124.31263
       330.36069       124.03739
       330.25159       123.90455
       330.14256       124.08657
       330.03360       124.63209
       329.92471       125.43271
       329.81590       126.26722
       329.70716       126.90427
       329.59849       127.21434
       329.48989       127.23580
       329.38136       127.13235
       329.27290       127.12313
       329.16452       127.36194
       329.05621       127.85657
       328.94796       128.46853
       328.83979       128.99108
       328.73169       129.26334
       328.62366       129.25884
       328.51571       129.10113
       328.40782       128.99874
       328.30000       129.13558
       328.19226       129.57605
       328.08458       130.23543
       327.97698       130.92896
       327.86945       131.47011
       327.76198       131.76284
       327.65459       131.83822
       327.54727       131.82301
       327.44002       131.86907
       327.33283       132.02222
       327.22572       132.24527
       327.11868       132.43927
       327.01171       132.50941
       326.90481       132.42451
       326.79798       132.22733
       326.69121       131.99104
       326.58452       131.75636
       326.47790       131.50198
       326.37135       131.18423
       326.26486       130.83708
       326.15845       130.67523
       326.05211       131.12276
       325.94583       132.71412
       325.83962       135.87710
       325.73349       140.67808
       325.62742       146.65031
       325.52142       152.81189
       325.41549       157.90869
       325.30963       160.74758
       325.20384       160.63288
       325.09812       157.59821
       324.99246       152.39286
       324.88688       146.22257
       324.78136       140.34768
       324.67591       135.70051
       324.57053       132.66729
       324.46522       131.09936
       324.35998       130.51566
       324.25480       130.38131
       324.14969       130.33028
       324.04466       130.24643
       323.93969       130.19794
       323.83478       130.29275
       323.72995       130.55155
       323.62518       130.86973
       323.52048       131.08009
       323.41585       131.06806
       323.31129       130.84898
       323.20679       130.58450
       323.10236       130.49740
       322.99800       130.74593
       322.89371       131.32883
       322.78948       132.07567
       322.68532       132.73071
       322.58123       133.08602
       322.47720       133.09253
       322.37325       132.88892
       322.26935       132.73206
       322.16553       132.86464
       322.06177       133.38827
       321.95808       134.20667
       321.85446       135.06677
       321.75090       135.67592
       321.64741       135.83654
       321.54399       135.53298
       321.44063       134.93203
       321.33734       134.30640
       321.23412       133.91177
       321.13096       133.88594
       321.02787       134.20781
       320.92484       134.72696
       320.82188       135.24183
       320.71899       135.58583
       320.61616       135.68469
       320.51340       135.56704
       320.41070       135.33439
       320.30807       135.11140
       320.20551       135.00011
       320.10301       135.05262
       320.00058       135.26501
       319.89821       135.58692
       319.79591       135.93950
       319.69367       136.23738
       319.59150       136.41058
       319.48940       136.42157
       319.38735       136.30446
       319.28538       136.13906
       319.18347       136.03343
       319.08162       136.08562
       318.97984       136.34016
       318.87813       136.76112
       318.77648       137.23733
       318.67489       137.62230
       318.57337       137.79440
       318.47191       137.71136
       318.37052       137.43334
       318.26919       137.10208
       318.16793       136.88368
       318.06673       136.89957
       317.96560       137.17596
       317.86453       137.63382
       317.76352       138.12262
       317.66258       138.48453
       317.56170       138.62440
       317.46089       138.51592
       317.36014       138.23518
       317.25946       137.92023
       317.15884       137.71628
       317.05828       137.72479
       316.95778       137.97093
       316.85735       138.39790
       316.75699       138.88718
       316.65668       139.29762
       316.55644       139.51191
       316.45627       139.47764
       316.35616       139.23019
       316.25611       138.88755
       316.15612       138.61416
       316.05620       138.56159
       315.95634       138.80532
       315.85654       139.30359
       315.75681       139.90046
       315.65714       140.38001
       315.55753       140.55028
       315.45798       140.33471
       315.35850       139.81765
       315.25908       139.22273
       315.15973       138.82582
       315.06043       138.83636
       314.96120       139.29973
       314.86203       140.06801
       314.76292       140.85760
       314.66388       141.37171
       314.56490       141.43348
       314.46598       141.06747
       314.36712       140.48957
       314.26832       140.00753
       314.16959       139.87730
       314.07092       140.18235
       313.97231       140.79318
       313.87376       141.42650
       313.77528       141.77631
       313.67685       141.65508
       313.57849       141.07897
       313.48019       140.25861
       313.38195       139.50191
       313.28377       139.07666
       313.18566       139.09748
       313.08760       139.48768
       312.98961       140.02921
       312.89168       140.47213
       312.79381       140.64947
       312.69600       140.54447
       312.59825       140.28335
       312.50056       140.06381
       312.40294       140.05790
       312.30537       140.33681
       312.20787       140.84963
       312.11043       141.46020
       312.01304       142.38669
       311.91572       144.60065
       311.81846       145.23298
       311.72126       145.15602
       311.62412       144.89577
       311.52704       144.64141
       311.43002       144.37452
       311.33307       144.02953
       311.23617       143.60397
       311.13933       143.18083
       311.04255       142.87730
       310.94584       142.76997
       310.84918       142.84884
       310.75258       143.02688
       310.65604       143.19488
       310.55957       143.28560
       310.46315       143.31019
       310.36679       143.35027
       310.27050       143.48816
       310.17426       143.77370
       310.07808       144.19253
       309.98196       144.67841
       309.88590       145.15729
       309.78990       145.59316
       309.69396       146.00753
       309.59808       146.46057
       309.50226       147.00540
       309.40650       147.64277
       309.31080       148.30353
       309.21515       148.87062
       309.11957       149.23016
       309.02404       149.32522
       308.92858       149.18416
       308.83317       148.90933
       308.73782       148.63257
       308.64253       148.46024
       308.54730       148.43457
       308.45213       148.52875
       308.35702       148.67523
       308.26196       148.79353
       308.16697       148.83672
       308.07203       148.80068
       307.97715       148.71212
       307.88233       148.60575
       307.78757       148.50514
       307.69286       148.41807
       307.59822       148.34584
       307.50363       148.29729
       307.40910       148.29543
       307.31463       148.37015
       307.22022       148.54038
       307.12586       148.79649
       307.03157       149.09517
       306.93733       149.37237
       306.84314       149.57014
       306.74902       149.66483
       306.65495       149.68279
       306.56095       149.69533
       306.46700       149.79493
       306.37310       150.06369
       306.27927       150.53961
       306.18549       151.20957
       306.09177       152.01332
       305.99811       152.86135
       305.90450       153.65740
       305.81095       154.31748
       305.71746       154.78171
       305.62402       155.01990
       305.53065       155.03360
       305.43733       154.85643
       305.34406       154.55161
       305.25086       154.20393
       305.15771       153.90387
       305.06461       153.72561
       304.97158       153.70447
       304.87860       153.82272
       304.78568       154.01134
       304.69281       154.17119
       304.60000       154.20964
       304.50725       154.08188
       304.41455       153.82214
       304.32191       153.56046
       304.22933       153.49546
       304.13680       153.84550
       304.04433       154.78036
       303.95192       156.35325
       303.85956       158.45631
       303.76726       160.81889
       303.67501       163.05643
       303.58282       164.76203
       303.49069       165.61644
       303.39861       165.48241
       303.30658       164.45045
       303.21462       162.81711
       303.12271       160.99937
       303.03085       159.41202
       302.93905       158.34954
       302.84731       157.91279
       302.75562       158.00432
       302.66399       158.38949
       302.57241       158.79408
       302.48089       158.99594
       302.38942       158.91364
       302.29801       158.58300
       302.20665       158.12066
       302.11535       157.66182
       302.02410       157.30515
       301.93291       157.08805
       301.84178       156.99540
       301.75070       156.98836
       301.65967       157.03269
       301.56870       157.11105
       301.47778       157.21656
       301.38692       157.33746
       301.29612       157.44773
       301.20536       157.51327
       301.11467       157.51215
       301.02402       157.45621
       300.93344       157.39906
       300.84290       157.42143
       300.75242       157.59801
       300.66200       157.95875
       300.57163       158.46072
       300.48131       159.02939
       300.39105       159.55652
       300.30084       159.95036
       300.21069       160.17153
       300.12059       160.24215
       300.03055       160.22841
       299.94055       160.20778
       299.85062       160.23786
       299.76073       160.34128
       299.67090       160.51028
       299.58113       160.72332
       299.49141       160.96079
       299.40174       161.20942
       299.31212       161.45454
       299.22256       161.66815
       299.13306       161.80486
       299.04360       161.81281
       298.95420       161.65719
       298.86486       161.34427
       298.77556       160.93021
       298.68632       160.50421
       298.59714       160.17820
       298.50800       160.02765
       298.41892       160.07016
       298.32989       160.26493
       298.24092       160.53460
       298.15200       160.79987
       298.06313       161.00993
       297.97432       161.15527
       297.88555       161.26012
       297.79685       161.36207
       297.70819       161.49203
       297.61959       161.66522
       297.53103       161.88521
       297.44254       162.15438
       297.35409       162.48049
       297.26570       162.87277
       297.17736       163.32874
       297.08907       163.82113
       297.00083       164.29556
       296.91265       164.68457
       296.82452       164.93371
       296.73644       165.02648
       296.64842       164.99639
       296.56044       164.91635
       296.47252       164.87021
       296.38465       164.91927
       296.29683       165.07948
       296.20907       165.31945
       296.12135       165.57806
       296.03369       165.79127
       295.94608       165.91403
       295.85852       165.92812
       295.77102       165.83588
       295.68356       165.64826
       295.59616       165.37773
       295.50881       165.04141
       295.42151       164.67121
       295.33426       164.32122
       295.24706       164.06257
       295.15992       163.96343
       295.07283       164.06279
       294.98578       164.35334
       294.89879       164.76644
       294.81185       165.20915
       294.72497       165.59751
       294.63813       165.88827
       294.55134       166.09180
       294.46461       166.25873
       294.37792       166.44818
       294.29129       166.69500
       294.20471       166.99374
       294.11818       167.30685
       294.03170       167.59092
       293.94527       167.82428
       293.85889       168.01890
       293.77256       168.20948
       293.68629       168.42683
       293.60006       168.67238
       293.51389       168.91094
       293.42776       169.08798
       293.34169       169.16247
       293.25566       169.13804
       293.16969       169.07548
       293.08377       169.04767
       292.99789       169.12337
       292.91207       169.32475
       292.82630       169.61219
       292.74058       169.90316
       292.65490       170.11407
       292.56928       170.20275
       292.48371       170.18822
       292.39819       170.13747
       292.31272       170.12728
       292.22730       170.20319
       292.14192       170.35902
       292.05660       170.54791
       291.97133       170.71690
       291.88611       170.84310
       291.80094       170.94864
       291.71581       171.08444
       291.63074       171.29284
       291.54572       171.57259
       291.46074       171.87192
       291.37582       172.12007
       291.29094       172.24689
       291.20612       172.25121
       291.12134       172.20318
       291.03661       172.20927
       290.95194       172.35401
       290.86731       172.64953
       290.78273       173.02380
       290.69820       173.35774
       290.61372       173.55218
       290.52929       173.58555
       290.44491       173.52581
       290.36057       173.48517
       290.27629       173.54182
       290.19205       173.67829
       290.10786       173.78388
       290.02373       173.73688
       289.93964       173.53464
       289.85560       173.40194
       289.77160       173.80308
       289.68766       175.32077
       289.60377       178.42906
       289.51992       183.21939
       289.43612       189.25850
       289.35237       195.60458
       289.26867       201.02820
       289.18502       204.37102
       289.10142       204.91132
       289.01786       202.59706
       288.93436       198.05623
       288.85090       192.38232
       288.76749       186.78105
       288.68412       182.21443
       288.60081       179.16999
       288.51754       177.62291
       288.43433       177.17587
       288.35116       177.29410
       288.26803       177.52780
       288.18496       177.63846
       288.10193       177.60139
       288.01895       177.51573
       287.93602       177.48722
       287.85314       177.54652
       287.77030       177.64174
       287.68752       177.67833
       287.60478       177.58522
       287.52208       177.35850
       287.43944       177.06107
       287.35684       176.78476
       287.27429       176.60190
       287.19179       176.53538
       287.10933       176.56176
       287.02693       176.64054
       286.94456       176.74804
       286.86225       176.89379
       286.77999       177.11022
       286.69777       177.42404
       286.61559       177.82913
       286.53347       178.27902
       286.45139       178.70504
       286.36936       179.05009
       286.28738       179.29843
       286.20544       179.48280
       286.12355       179.66200
       286.04171       179.90748
       285.95991       180.25010
       285.87816       180.67155
       285.79646       181.11754
       285.71480       181.52623
       285.63319       181.85664
       285.55163       182.10197
       285.47011       182.28233
       285.38864       182.42398
       285.30722       182.53911
       285.22584       182.61902
       285.14451       182.64431
       285.06323       182.60485
       284.98199       182.51629
       284.90080       182.42174
       284.81965       182.37624
       284.73856       182.42183
       284.65750       182.56698
       284.57650       182.78159
       284.49554       183.00868
       284.41462       183.18367
       284.33375       183.28249
       284.25293       183.30699
       284.17215       183.28429
       284.09142       183.25194
       284.01074       183.24105
       283.93010       183.26830
       283.84951       183.33918
       283.76896       183.45745
       283.68846       183.63200
       283.60800       183.87467
       283.52759       184.18922
       283.44722       184.55862
       283.36691       184.94001
       283.28663       185.27338
       283.20640       185.50234
       283.12622       185.59771
       283.04608       185.57249
       282.96599       185.47998
       282.88594       185.39547
       282.80594       185.38835
       282.72598       185.49508
       282.64607       185.73015
       282.56621       186.07114
       282.48639       186.47799
       282.40661       186.90937
       282.32688       187.33026
       282.24719       187.71080
       282.16755       188.02149
       282.08796       188.23192
       282.00841       188.31743
       281.92890       188.27227
       281.84944       188.12153
       281.77002       187.92322
       281.69065       187.75585
       281.61132       187.69404
       281.53204       187.78210
       281.45280       188.01723
       281.37361       188.35026
       281.29446       188.70394
       281.21536       189.00064
       281.13630       189.18707
       281.05728       189.24552
       280.97831       189.19993
       280.89938       189.09377
       280.82050       188.97509
       280.74166       188.88507
       280.66287       188.85367
       280.58412       188.90086
       280.50542       189.03844
       280.42675       189.26859
       280.34814       189.57920
       280.26957       189.93995
       280.19104       190.30428
       280.11255       190.61943
       280.03411       190.84253
       279.95571       190.95577
       279.87736       190.97379
       279.79905       190.93903
       279.72079       190.90686
       279.64256       190.92693
       279.56439       191.02876
       279.48625       191.21785
       279.40816       191.48357
       279.33011       191.79417
       279.25211       192.12017
       279.17415       192.43494
       279.09623       192.71287
       279.01836       192.92773
       278.94053       193.05477
       278.86275       193.07794
       278.78500       192.99946
       278.70730       192.84597
       278.62965       192.66584
       278.55204       192.51654
       278.47447       192.44619
       278.39694       192.47726
       278.31946       192.59995
       278.24202       192.77856
       278.16462       192.96768
       278.08727       193.13052
       278.00995       193.25090
       277.93269       193.33422
       277.85546       193.39974
       277.77828       193.47138
       277.70114       193.55211
       277.62404       193.63917
       277.54699       193.72682
       277.46998       193.81364
       277.39301       193.90750
       277.31609       194.02326
       277.23920       194.17434
       277.16236       194.36325
       277.08557       194.57673
       277.00881       194.78871
       276.93210       194.97013
       276.85543       195.10060
       276.77880       195.17635
       276.70222       195.21106
       276.62567       195.22981
       276.54917       195.25983
       276.47271       195.32252
       276.39630       195.42935
       276.31992       195.58182
       276.24359       195.77465
       276.16730       196.00189
       276.09106       196.23599
       276.01485       196.45052
       275.93869       196.61945
       275.86257       196.72255
       275.78649       196.75336
       275.71045       196.72408
       275.63446       196.66372
       275.55850       196.60904
       275.48259       196.59170
       275.40672       196.62779
       275.33089       196.71534
       275.25511       196.84135
       275.17936       196.99446
       275.10366       197.17583
       275.02800       197.40121
       274.95238       197.69190
       274.87680       198.05884
       274.80127       198.48854
       274.72577       198.93978
       274.65032       199.35536
       274.57491       199.68566
       274.49954       199.89670
       274.42421       199.99299
       274.34892       200.00881
       274.27367       199.98874
       274.19847       199.96694
       274.12330       199.95635
       274.04818       199.95472
       273.97310       199.96427
       273.89806       200.01344
       273.82306       200.16579
       273.74810       200.50675
       273.67318       201.10963
       273.59831       201.99404
       273.52347       203.09616
       273.44868       204.26704
       273.37392       205.30435
       273.29921       206.00865
       273.22454       206.24423
       273.14991       205.98212
       273.07532       205.30932
       273.00077       204.40146
       272.92626       203.47258
       272.85179       202.71415
       272.77736       202.24994
       272.70297       202.11625
       272.62863       202.27002
       272.55432       202.61742
       272.48006       203.05049
       272.40583       203.47934
       272.33165       203.85139
       272.25750       204.15535
       272.18340       204.41198
       272.10934       204.65752
       272.03531       204.92570
       271.96133       205.23390
       271.88739       205.57651
       271.81348       205.92638
       271.73962       206.24278
       271.66580       206.48260
       271.59202       206.61126
       271.51828       206.60913
       271.44457       206.47124
       271.37091       206.22343
       271.29729       205.90249
       271.22371       205.55505
       271.15016       205.23243
       271.07666       204.98174
       271.00320       204.83458
       270.92978       204.79579
       270.85639       204.83722
       270.78305       204.90195
       270.70975       204.92166
       270.63648       204.84348
       270.56326       204.65677
       270.49008       204.40692
       270.41693       204.18680
       270.34382       204.10571
       270.27076       204.24757
       270.19773       204.63759
       270.12475       205.23583
       270.05180       205.96437
       269.97889       206.75631
       269.90602       207.60016
       269.83319       208.58279
       269.76040       209.83890
       269.68765       211.48590
       269.61494       213.54062
       269.54227       215.85944
       269.46963       218.13766
       269.39704       219.97888
       269.32448       221.01390
       269.25197       221.02462
       269.17949       220.02234
       269.10705       218.24753
       269.03465       216.08976
       268.96229       213.96049
       268.88997       212.16971
       268.81769       210.85369
       268.74545       209.97638
       268.67324       209.39418
       268.60108       208.94793
       268.52895       208.53856
       268.45686       208.15494
       268.38481       207.84776
       268.31280       207.69646
       268.24083       207.73754
       268.16889       207.94457
       268.09700       208.24161
       268.02514       208.54053
       267.95332       208.78091
       267.88155       208.95182
       267.80980       209.08726
       267.73810       209.24202
       267.66644       209.46377
       267.59481       209.77635
       267.52322       210.17962
       267.45167       210.66053
       267.38016       211.20413
       267.30869       211.79567
       267.23725       212.41304
       267.16586       213.01726
       267.09450       213.55138
       267.02318       213.95321
       266.95190       214.17887
       266.88065       214.22602
       266.80945       214.13237
       266.73828       213.97095
       266.66715       213.81946
       266.59606       213.72917
       266.52500       213.70776
       266.45399       213.72398
       266.38301       213.73048
       266.31207       213.69192
       266.24116       213.60329
       266.17030       213.48939
       266.09947       213.38793
       266.02868       213.32737
       265.95793       213.31337
       265.88721       213.33128
       265.81654       213.36220
       265.74590       213.40158
       265.67529       213.46801
       265.60473       213.59619
       265.53420       213.81799
       265.46371       214.14390
       265.39326       214.55754
       265.32285       215.01642
       265.25247       215.48196
       265.18213       215.93775
       265.11183       216.39545
       265.04156       216.88280
       264.97133       217.41934
       264.90114       217.99379
       264.83099       218.55647
       264.76087       219.03256
       264.69079       219.35015
       264.62075       219.46903
       264.55074       219.39577
       264.48077       219.17846
       264.41084       218.88507
       264.34095       218.57795
       264.27109       218.29722
       264.20127       218.05917
       264.13149       217.86650
       264.06174       217.72036
       263.99203       217.62584
       263.92236       217.58937
       263.85272       217.59495
       263.78312       217.61370
       263.71356       217.60962
       263.64403       217.55883
       263.57454       217.47095
       263.50509       217.39808
       263.43567       217.42276
       263.36629       217.62747
       263.29695       218.05929
       263.22764       218.70682
       263.15837       219.50158
       263.08914       220.34313
       263.01994       221.13504
       262.95078       221.81387
       262.88165       222.35803
       262.81256       222.77577
       262.74351       223.08313
       262.67450       223.28764
       262.60552       223.38789
       262.53657       223.38815
       262.46767       223.31661
       262.39880       223.21482
       262.32996       223.13367
       262.26116       223.10112
       262.19240       223.09697
       262.12367       223.05203
       262.05498       222.87681
       261.98633       222.50850
       261.91771       221.95187
       261.84912       221.29043
       261.78058       220.65848
       261.71207       220.18652
       261.64359       219.94845
       261.57515       219.93895
       261.50675       220.09310
       261.43838       220.33493
       261.37005       220.62381
       261.30175       220.96787
       261.23349       221.39472
       261.16527       221.89938
       261.09708       222.41106
       261.02892       222.81707
       260.96081       223.05263
       260.89272       223.22236
       260.82468       223.68568
       260.75666       225.03731
       260.68869       227.95179
       260.62075       232.92407
       260.55284       239.99841
       260.48497       248.60347
       260.41714       257.58422
       260.34934       265.45003
       260.28157       270.76934
       260.21385       272.57665
       260.14615       270.64558
       260.07849       265.53065
       260.01087       258.36925
       259.94328       250.52551
       259.87573       243.21156
       259.80821       237.21708
       259.74073       232.82188
       259.67328       229.88554
       259.60587       228.04113
       259.53849       226.90835
       259.47115       226.21324
       259.40384       225.81936
       259.33657       225.67979
       259.26933       225.76440
       259.20213       226.01360
       259.13496       226.34045
       259.06783       226.66794
       259.00073       226.96811
       258.93366       227.27207
       258.86663       227.64190
       258.79964       228.12145
       258.73268       228.69687
       258.66575       229.29260
       258.59886       229.80744
       258.53201       230.17164
       258.46519       230.39327
       258.39840       230.56675
       258.33165       230.83687
       258.26493       231.33236
       258.19825       232.09746
       258.13160       233.09113
       258.06498       234.17116
       257.99840       235.15051
       257.93186       235.86209
       257.86535       236.20796
       257.79887       236.17863
       257.73242       235.84117
       257.66602       235.30795
       257.59964       234.70182
       257.53330       234.12976
       257.46699       233.66846
       257.40072       233.35905
       257.33448       233.20634
       257.26828       233.18098
       257.20211       233.22654
       257.13598       233.27424
       257.06987       233.26467
       257.00381       233.17025
       256.93777       233.00887
       256.87177       232.83981
       256.80581       232.74004
       256.73987       232.78635
       256.67398       233.01431
       256.60811       233.40851
       256.54228       233.91128
       256.47648       234.44615
       256.41072       234.94542
       256.34499       235.36918
       256.27929       235.70935
       256.21363       235.98011
       256.14800       236.20299
       256.08241       236.39558
       256.01685       236.56875
       255.95132       236.73052
       255.88583       236.89036
       255.82037       237.05841
       255.75494       237.23839
       255.68954       237.41895
       255.62418       237.57073
       255.55886       237.65426
       255.49356       237.63691
       255.42830       237.51106
       255.36308       237.30901
       255.29788       237.09426
       255.23272       236.94309
       255.16760       236.91894
       255.10250       237.05134
       255.03744       237.32877
       254.97241       237.70716
       254.90742       238.12836
       254.84246       238.53897
       254.77753       238.90139
       254.71264       239.19495
       254.64777       239.41089
       254.58294       239.54770
       254.51815       239.61128
       254.45339       239.61931
       254.38866       239.60443
       254.32396       239.61025
       254.25930       239.67821
       254.19466       239.82956
       254.13007       240.05254
       254.06550       240.30461
       254.00097       240.51317
       253.93647       240.61595
       253.87200       240.58334
       253.80757       240.43028
       253.74316       240.21050
       253.67879       239.99480
       253.61446       239.84407
       253.55015       239.78931
       253.48588       239.82691
       253.42164       239.92875
       253.35744       240.05983
       253.29326       240.19311
       253.22912       240.31487
       253.16501       240.42057
       253.10094       240.50708
       253.03689       240.56888
       252.97288       240.60185
       252.90890       240.61245
       252.84496       240.62508
       252.78104       240.68331
       252.71716       240.84558
       252.65331       241.12646
       252.58949       241.52048
       252.52571       241.99034
       252.46196       242.47651
       252.39824       242.92027
       252.33455       243.28632
       252.27089       243.57400
       252.20727       243.81175
       252.14367       244.03820
       252.08011       244.28007
       252.01658       244.53799
       251.95309       244.78686
       251.88962       244.98913
       251.82619       245.11304
       251.76279       245.14611
       251.69942       245.09782
       251.63609       244.99219
       251.57278       244.85634
       251.50951       244.71229
       251.44627       244.57775
       251.38306       244.47593
       251.31988       244.41555
       251.25674       244.41442
       251.19362       244.48628
       251.13054       244.62849
       251.06749       244.81565
       251.00447       245.00364
       250.94148       245.14413
       250.87853       245.20403
       250.81560       245.18045
       250.75271       245.10351
       250.68985       245.02538
       250.62702       245.00062
       250.56422       245.06733
       250.50145       245.23726
       250.43872       245.49817
       250.37602       245.82478
       250.31334       246.19110
       250.25070       246.57731
       250.18809       246.96937
       250.12551       247.35453
       250.06297       247.71880
       250.00045       248.04903
       249.93797       248.34214
       249.87551       248.61248
       249.81309       248.89190
       249.75070       249.21901
       249.68834       249.62081
       249.62601       250.09531
       249.56372       250.60514
       249.50145       251.08744
       249.43921       251.47710
       249.37701       251.73323
       249.31484       251.85629
       249.25269       251.88755
       249.19058       251.89111
       249.12850       251.92732
       249.06645       252.03019
       249.00443       252.19873
       248.94245       252.40448
       248.88049       252.60929
       248.81856       252.78011
       248.75667       252.88945
       248.69480       252.95241
       248.63297       252.97781
       248.57117       252.96817
       248.50940       252.92109
       248.44765       252.83548
       248.38594       252.72042
       248.32426       252.59954
       248.26261       252.50638
       248.20099       252.47236
       248.13941       252.51375
       248.07785       252.62578
       248.01632       252.78782
       247.95482       252.97733
       247.89336       253.18458
       247.83192       253.41958
       247.77052       253.70672
       247.70914       254.06994
       247.64780       254.51694
       247.58648       255.03149
       247.52520       255.57301
       247.46395       256.07500
       247.40272       256.53563
       247.34153       256.95016
       247.28037       257.32199
       247.21924       257.65455
       247.15813       257.93872
       247.09706       258.15021
       247.03602       258.26027
       246.97501       258.25447
       246.91403       258.14852
       246.85308       257.99043
       246.79215       257.84528
       246.73126       257.76855
       246.67040       257.78112
       246.60957       257.85886
       246.54877       257.94314
       246.48800       257.96737
       246.42726       257.88692
       246.36655       257.69787
       246.30586       257.43634
       246.24521       257.15422
       246.18459       256.87567
       246.12400       256.66662
       246.06344       256.54297
       246.00290       256.49915
       245.94240       256.52885
       245.88193       256.63350
       245.82149       256.81903
       245.76107       257.08344
       245.70069       257.40462
       245.64034       257.73852
       245.58001       258.03189
       245.51972       258.24492
       245.45945       258.37208
       245.39922       258.44918
       245.33901       258.54116
       245.27883       258.71550
       245.21869       259.01351
       245.15857       259.43329
       245.09848       259.93155
       245.03842       260.44193
       244.97839       260.89378
       244.91840       261.21378
       244.85843       261.40493
       244.79848       261.46506
       244.73857       261.39314
       244.67869       261.19191
       244.61884       260.87551
       244.55901       260.48218
       244.49922       260.08110
       244.43945       259.76354
       244.37972       259.61709
       244.32001       259.69191
       244.26033       259.97523
       244.20069       260.38861
       244.14107       260.81252
       244.08148       261.12946
       244.02192       261.26708
       243.96238       261.22193
       243.90288       261.05364
       243.84341       260.85328
       243.78396       260.70223
       243.72454       260.63767
       243.66516       260.63483
       243.60580       260.67107
       243.54647       260.70762
       243.48717       260.72498
       243.42790       260.73462
       243.36866       260.76814
       243.30944       260.85541
       243.25026       261.00537
       243.19110       261.19996
       243.13197       261.40332
       243.07288       261.57922
       243.01381       261.70592
       242.95476       261.77977
       242.89575       261.80711
       242.83677       261.79090
       242.77781       261.72202
       242.71889       261.58137
       242.65999       261.35237
       242.60112       261.03610
       242.54228       260.65989
       242.48346       260.27564
       242.42468       259.95121
       242.36593       259.72493
       242.30720       259.62128
       242.24850       259.64352
       242.18983       259.77946
       242.13119       260.01170
       242.07258       260.32339
       242.01399       260.69666
       241.95543       261.10741
       241.89691       261.52306
       241.83841       261.90886
       241.77993       262.24175
       241.72149       262.52464
       241.66308       262.79079
       241.60469       263.09224
       241.54633       263.47467
       241.48800       263.94980
       241.42970       264.48010
       241.37142       264.98560
       241.31318       265.37204
       241.25496       265.57116
       241.19677       265.57858
       241.13861       265.41451
       241.08047       265.14888
       241.02237       264.85743
       240.96429       264.58727
       240.90624       264.34473
       240.84822       264.10675
       240.79023       263.84756
       240.73226       263.56380
       240.67432       263.28291
       240.61641       263.04971
       240.55853       262.89967
       240.50068       262.83520
       240.44285       262.82034
       240.38505       262.79855
       240.32728       262.72471
       240.26954       262.59387
       240.21182       262.45013
       240.15413       262.36993
       240.09647       262.42774
       240.03884       262.66710
       239.98124       263.09921
       239.92366       263.64375
       239.86611       264.22542
       239.80859       264.79026
       239.75109       265.31802
       239.69363       265.81822
       239.63619       266.31044
       239.57878       266.80304
       239.52139       267.28421
       239.46403       267.73047
       239.40671       268.12555
       239.34940       268.47551
       239.29213       268.80777
       239.23488       269.15236
       239.17766       269.51586
       239.12047       269.86479
       239.06331       270.13136
       239.00617       270.24164
       238.94906       270.15237
       238.89198       269.87590
       238.83492       269.48221
       238.77789       269.08180
       238.72089       268.72562
       238.66392       268.43294
       238.60697       268.17660
       238.55005       267.90621
       238.49316       267.58882
       238.43629       267.23806
       238.37945       266.91344
       238.32264       266.68931
       238.26586       266.61173
       238.20910       266.67042
       238.15237       266.80478
       238.09567       266.94305
       238.03899       267.05228
       237.98234       267.16787
       237.92572       267.38137
       237.86913       267.78923
       237.81256       268.42981
       237.75602       269.24633
       237.69950       270.10089
       237.64302       270.83819
       237.58655       271.36742
       237.53012       271.68166
       237.47371       271.86828
       237.41733       272.03249
       237.36098       272.21252
       237.30465       272.34399
       237.24835       272.31133
       237.19208       272.07799
       237.13583       271.83262
       237.07961       272.06023
       237.02342       273.46535
       236.96725       276.73678
       236.91111       282.22593
       236.85500       289.67049
       236.79891       298.10070
       236.74285       306.00491
       236.68682       311.72748
       236.63081       313.96900
       236.57483       312.20493
       236.51888       306.86093
       236.46295       299.17500
       236.40705       290.79945
       236.35117       283.29571
       236.29532       277.70974
       236.23950       274.37203
       236.18371       272.96592
       236.12794       272.79888
       236.07219       273.14005
       236.01648       273.48203
       235.96079       273.64060
       235.90512       273.69069
       235.84948       273.80828
       235.79387       274.11577
       235.73829       274.60501
       235.68273       275.15785
       235.62719       275.62951
       235.57169       275.93334
       235.51621       276.07644
       235.46075       276.13252
       235.40532       276.17772
       235.34992       276.23458
       235.29454       276.25874
       235.23919       276.17296
       235.18387       275.94157
       235.12857       275.60044
       235.07330       275.25802
       235.01805       275.04749
       234.96283       275.05798
       234.90764       275.28548
       234.85247       275.63206
       234.79733       275.95513
       234.74221       276.14057
       234.68712       276.16106
       234.63205       276.08938
       234.57701       276.06128
       234.52200       276.20936
       234.46701       276.60257
       234.41205       277.22105
       234.35711       277.97452
       234.30220       278.74921
       234.24732       279.45536
       234.19246       280.05071
       234.13763       280.53082
       234.08282       280.89666
       234.02804       281.15407
       233.97328       281.28572
       233.91855       281.27535
       233.86385       281.13742
       233.80917       280.93277
       233.75451       280.75719
       233.69989       280.70449
       233.64528       280.82207
       233.59070       281.08338
       233.53615       281.39409
       233.48163       281.63096
       233.42713       281.69521
       233.37265       281.55404
       233.31820       281.25064
       233.26378       280.87960
       233.20938       280.54258
       233.15500       280.30789
       233.10065       280.19357
       233.04633       280.17857
       232.99203       280.23024
       232.93776       280.32742
       232.88351       280.48339
       232.82929       280.71811
       232.77509       281.03801
       232.72092       281.42038
       232.66678       281.81666
       232.61266       282.17554
       232.55856       282.47338
       232.50449       282.73333
       232.45044       283.02012
       232.39642       283.41103
       232.34243       283.95681
       232.28846       284.65265
       232.23451       285.43416
       232.18059       286.20011
       232.12670       286.84979
       232.07283       287.31601
       232.01898       287.57856
       231.96516       287.65470
       231.91137       287.57625
       231.85760       287.36947
       231.80385       287.05118
       231.75013       286.63276
       231.69643       286.14575
       231.64276       285.65077
       231.58912       285.22876
       231.53550       284.95464
       231.48190       284.86481
       231.42833       284.93599
       231.37478       285.08838
       231.32126       285.21399
       231.26776       285.21859
       231.21429       285.05833
       231.16084       284.75505
       231.10742       284.38481
       231.05402       284.04676
       231.00065       283.82772
       230.94730       283.77776
       230.89398       283.90454
       230.84068       284.18399
       230.78740       284.57795
       230.73415       285.05050
       230.68092       285.57977
       230.62772       286.12847
       230.57455       286.66948
       230.52139       287.18132
       230.46827       287.65223
       230.41516       288.08648
       230.36208       288.50481
       230.30903       288.93579
       230.25600       289.40051
       230.20299       289.89794
       230.15001       290.39928
       230.09706       290.85504
       230.04412       291.21220
       229.99122       291.43296
       229.93833       291.50604
       229.88547       291.44549
       229.83264       291.27919
       229.77983       291.03474
       229.72704       290.73127
       229.67428       290.38125
       229.62154       290.00270
       229.56883       289.63643
       229.51614       289.31195
       229.46347       289.07413
       229.41083       288.95866
       229.35821       288.97358
       229.30562       289.09325
       229.25305       289.26609
       229.20051       289.43284
       229.14799       289.54731
       229.09549       289.59048
       229.04302       289.57312
       228.99057       289.52820
       228.93814       289.49886
       228.88574       289.52814
       228.83337       289.65375
       228.78101       289.90623
       228.72868       290.30662
       228.67638       290.86089
       228.62410       291.55223
       228.57184       292.33633
       228.51961       293.14764
       228.46740       293.92097
       228.41521       294.58343
       228.36305       295.10480
       228.31092       295.49957
       228.25880       295.81644
       228.20671       296.11619
       228.15464       296.44545
       228.10260       296.81849
       228.05058       297.21459
       227.99859       297.59074
       227.94662       297.90186
       227.89467       298.11750
       227.84275       298.22790
       227.79084       298.23850
       227.73897       298.15966
       227.68711       297.99965
       227.63529       297.76655
       227.58348       297.47718
       227.53170       297.16619
       227.47994       296.88714
       227.42820       296.70234
       227.37649       296.66518
       227.32480       296.80326
       227.27314       297.11362
       227.22150       297.57072
       227.16988       298.14272
       227.11828       298.80525
       227.06671       299.54298
       227.01517       300.33676
       226.96364       301.14431
       226.91214       301.88818
       226.86066       302.46325
       226.80921       302.76603
       226.75778       302.73542
       226.70637       302.38607
       226.65499       301.81609
       226.60363       301.18185
       226.55229       300.64759
       226.50098       300.33030
       226.44968       300.26325
       226.39842       300.39283
       226.34717       300.60699
       226.29595       300.77862
       226.24475       300.83131
       226.19358       300.74115
       226.14243       300.53767
       226.09130       300.28253
       226.04019       300.04207
       225.98911       299.86880
       225.93805       299.79679
       225.88701       299.84682
       225.83600       300.03200
       225.78501       300.35649
       225.73404       300.80744
       225.68310       301.34651
       225.63218       301.91027
       225.58128       302.42376
       225.53040       302.82389
       225.47955       303.08223
       225.42872       303.21553
       225.37791       303.27803
       225.32713       303.33889
       225.27637       303.45307
       225.22563       303.63568
       225.17492       303.89362
       225.12423       304.20183
       225.07356       304.52597
       225.02291       304.83479
       224.97229       305.09988
       224.92168       305.28888
       224.87111       305.36129
       224.82055       305.27497
       224.77002       305.00427
       224.71951       304.56185
       224.66902       304.01059
       224.61856       303.45517
       224.56811       303.01220
       224.51769       302.77003
       224.46730       302.75615
       224.41692       302.92807
       224.36657       303.19291
       224.31624       303.44677
       224.26594       303.61560
       224.21565       303.67639
       224.16539       303.64697
       224.11515       303.59713
       224.06494       303.58264
       224.01474       303.63281
       223.96457       303.75270
       223.91442       303.93937
       223.86430       304.20149
       223.81419       304.56757
       223.76411       305.07545
       223.71405       305.74749
       223.66401       306.56560
       223.61400       307.46151
       223.56401       308.33021
       223.51404       309.06236
       223.46409       309.58108
       223.41417       309.86655
       223.36426       309.95771
       223.31438       309.93218
       223.26453       309.87521
       223.21469       309.85249
       223.16488       309.89494
       223.11508       309.99537
       223.06532       310.14301
       223.01557       310.30892
       222.96584       310.45480
       222.91614       310.53361
       222.86646       310.49039
       222.81680       310.27127
       222.76717       309.84154
       222.71755       309.20621
       222.66796       308.42239
       222.61839       307.59463
       222.56884       306.85198
       222.51932       306.31435
       222.46981       306.06123
       222.42033       306.11456
       222.37087       306.44061
       222.32143       306.96704
       222.27202       307.60538
       222.22262       308.26980
       222.17325       308.88763
       222.12390       309.40397
       222.07457       309.78549
       222.02527       310.02678
       221.97598       310.15769
       221.92672       310.24493
       221.87748       310.38130
       221.82826       310.66123
       221.77907       311.14912
       221.72989       311.85300
       221.68074       312.71581
       221.63161       313.62962
       221.58250       314.46750
       221.53341       315.11993
       221.48434       315.52097
       221.43530       315.65577
       221.38628       315.55076
       221.33727       315.25617
       221.28830       314.83176
       221.23934       314.34175
       221.19040       313.85571
       221.14149       313.44708
       221.09260       313.18140
       221.04372       313.09449
       220.99487       313.16987
       220.94605       313.32988
       220.89724       313.45124
       220.84846       313.40459
       220.79969       313.10401
       220.75095       312.54559
       220.70223       311.81660
       220.65353       311.07010
       220.60486       310.47530
       220.55620       310.16508
       220.50757       310.20188
       220.45895       310.57298
       220.41036       311.21089
       220.36179       312.02386
       220.31324       312.91985
       220.26472       313.81573
       220.21621       314.63499
       220.16773       315.30554
       220.11926       315.76791
       220.07082       315.99736
       220.02240       316.03253
       219.97400       315.94510
       219.92562       315.85815
       219.87727       315.89727
       219.82893       316.14041
       219.78062       316.58633
       219.73232       317.15488
       219.68405       317.72027
       219.63580       318.16107
       219.58757       318.40305
       219.53937       318.43566
       219.49118       318.29803
       219.44301       318.04750
       219.39487       317.73170
       219.34674       317.38070
       219.29864       317.02084
       219.25056       316.69626
       219.20250       316.47809
       219.15446       316.44812
       219.10644       316.66134
       219.05845       317.10894
       219.01047       317.70873
       218.96252       318.30483
       218.91458       318.74713
       218.86667       318.94824
       218.81878       318.91884
       218.77091       318.75994
       218.72306       318.61386
       218.67523       318.59984
       218.62742       318.76780
       218.57963       319.09272
       218.53186       319.50798
       218.48412       319.95367
       218.43639       320.40772
       218.38869       320.88036
       218.34101       321.37695
       218.29334       321.85664
       218.24570       322.21955
       218.19808       322.33919
       218.15048       322.12770
       218.10290       321.59775
       218.05534       320.88154
       218.00781       320.18902
       217.96029       319.71043
       217.91279       319.53615
       217.86532       319.61626
       217.81786       319.79594
       217.77043       319.90807
       217.72302       319.86991
       217.67562       319.72559
       217.62825       319.60677
       217.58090       319.63414
       217.53357       319.82516
       217.48626       320.07925
       217.43897       320.27310
       217.39170       320.43133
       217.34445       320.87879
       217.29722       322.26521
       217.25001       325.39914
       217.20283       330.91855
       217.15566       338.91964
       217.10851       348.71262
       217.06139       358.84387
       217.01428       367.42301
       216.96720       372.65826
       216.92013       373.41806
       216.87309       369.59552
       216.82606       362.13666
       216.77906       352.72303
       216.73208       343.23529
       216.68512       335.20543
       216.63817       329.45488
       216.59125       326.02496
       216.54435       324.37891
       216.49747       323.75020
       216.45061       323.47388
       216.40377       323.17515
       216.35695       322.77610
       216.31015       322.37029
       216.26337       322.06434
       216.21661       321.87733
       216.16987       321.73742
       216.12315       321.55243
       216.07645       321.29394
       216.02977       321.03686
       215.98311       320.91231
       215.93647       321.04364
       215.88985       321.46899
       215.84326       322.11560
       215.79668       322.83865
       215.75012       323.49938
       215.70358       324.03631
       215.65706       324.48956
       215.61057       324.96672
       215.56409       325.57272
       215.51763       326.34524
       215.47119       327.23161
       215.42478       328.11754
       215.37838       328.88824
       215.33200       329.48528
       215.28564       329.92727
       215.23930       330.28525
       215.19299       330.62984
       215.14669       330.98207
       215.10041       331.29465
       215.05415       331.47061
       215.00791       331.42748
       214.96170       331.12560
       214.91550       330.59087
       214.86932       329.90204
       214.82316       329.15602
       214.77702       328.43407
       214.73090       327.78692
       214.68480       327.24207
       214.63872       326.82193
       214.59266       326.55520
       214.54662       326.47032
       214.50060       326.57381
       214.45460       326.82870
       214.40862       327.15086
       214.36266       327.43165
       214.31672       327.57962
       214.27080       327.56134
       214.22489       327.42001
       214.17901       327.26095
       214.13315       327.21016
       214.08731       327.36597
       214.04148       327.76684
       213.99568       328.38681
       213.94989       329.15741
       213.90413       329.99952
       213.85838       330.84687
       213.81266       331.65074
       213.76695       332.36951
       213.72127       332.95634
       213.67560       333.35942
       213.62995       333.53936
       213.58432       333.49567
       213.53872       333.28517
       213.49313       333.01744
       213.44756       332.82354
       213.40201       332.80951
       213.35648       333.01561
       213.31097       333.40083
       213.26547       333.86023
       213.22000       334.26696
       213.17455       334.51916
       213.12912       334.57168
       213.08370       334.44186
       213.03831       334.19203
       212.99293       333.90256
       212.94757       333.64985
       212.90224       333.49685
       212.85692       333.49328
       212.81162       333.67622
       212.76634       334.06295
       212.72108       334.63602
       212.67584       335.32980
       212.63062       336.03095
       212.58542       336.60069
       212.54024       336.91502
       212.49507       336.90791
       212.44993       336.59793
       212.40480       336.08510
       212.35970       335.51767
       212.31461       335.04288
       212.26954       334.76265
       212.22449       334.71097
       212.17946       334.85827
       212.13445       335.14433
       212.08946       335.50105
       212.04449       335.87351
       211.99954       336.22449
       211.95460       336.52783
       211.90969       336.76223
       211.86479       336.91378
       211.81991       336.98734
       211.77505       337.01839
       211.73022       337.07389
       211.68540       337.23583
       211.64059       337.57103
       211.59581       338.10034
       211.55105       338.78284
       211.50630       339.52422
       211.46158       340.20735
       211.41687       340.73161
       211.37219       341.04362
       211.32752       341.14707
       211.28287       341.08877
       211.23824       340.92941
       211.19362       340.73409
       211.14903       340.54405
       211.10446       340.38118
       211.05990       340.25802
       211.01536       340.18403
       210.97085       340.16323
       210.92635       340.18472
       210.88187       340.21451
       210.83740       340.19813
       210.79296       340.07787
       210.74854       339.81898
       210.70413       339.43238
       210.65974       338.98098
       210.61538       338.56388
       210.57103       338.28348
       210.52670       338.20968
       210.48238       338.35649
       210.43809       338.68087
       210.39382       339.10248
       210.34956       339.53279
       210.30532       339.89850
       210.26110       340.17059
       210.21690       340.34703
       210.17272       340.44537
       210.12856       340.49257
       210.08441       340.51933
       210.04029       340.55967
       209.99618       340.65103
       209.95209       340.82954
       209.90802       341.11938
       209.86397       341.52028
       209.81993       342.00094
       209.77592       342.50392
       209.73192       342.96178
       209.68794       343.31809
       209.64398       343.54337
       209.60004       343.63893
       209.55612       343.62805
       209.51222       343.54084
       209.46833       343.40205
       209.42446       343.23126
       209.38061       343.05786
       209.33678       342.89141
       209.29297       342.76367
       209.24918       342.71226
       209.20540       342.76167
       209.16164       342.90805
       209.11790       343.11519
       209.07418       343.32689
       209.03048       343.49121
       208.98679       343.58477
       208.94313       343.62384
       208.89948       343.65523
       208.85585       343.73041
       208.81224       343.87605
       208.76864       344.07606
       208.72507       344.27509
       208.68151       344.40196
       208.63797       344.40142
       208.59445       344.25839
       208.55095       344.00353
       208.50747       343.69761
       208.46400       343.40257
       208.42055       343.17386
       208.37712       343.03466
       208.33371       342.98381
       208.29032       343.00975
       208.24694       343.10121
       208.20358       343.24867
       208.16024       343.43715
       208.11692       343.63791
       208.07362       343.80862
       208.03033       343.90680
       207.98706       343.91239
       207.94382       343.84819
       207.90058       343.78543
       207.85737       343.82773
       207.81417       344.07726
       207.77100       344.59626
       207.72784       345.38012
       207.68470       346.35354
       207.64157       347.39124
       207.59847       348.35493
       207.55538       349.13260
       207.51231       349.65547
       207.46925       349.91421
       207.42622       349.94833
       207.38320       349.82730
       207.34020       349.63021
       207.29722       349.42803
       207.25426       349.26951
       207.21132       349.17106
       207.16839       349.11140
       207.12548       349.03415
       207.08259       348.86093
       207.03971       348.51441
       206.99686       347.94539
       206.95402       347.15426
       206.91120       346.19726
       206.86839       345.17377
       206.82561       344.19898
       206.78284       343.37339
       206.74009       342.76161
       206.69736       342.38922
       206.65464       342.25705
       206.61194       342.34194
       206.56926       342.62419
       206.52660       343.08390
       206.48396       343.69062
       206.44133       344.39514
       206.39872       345.13285
       206.35613       345.84245
       206.31356       346.49324
       206.27100       347.10604
       206.22846       347.75271
       206.18594       348.52869
       206.14344       349.50692
       206.10095       350.69310
       206.05848       352.00435
       206.01603       353.28412
       205.97360       354.34947
       205.93118       355.05162
       205.88878       355.32384
       205.84640       355.19682
       205.80404       354.77760
       205.76169       354.20466
       205.71936       353.59265
       205.67705       353.00817
       205.63475       352.46499
       205.59248       351.94259
       205.55022       351.41268
       205.50798       350.85814
       205.46575       350.27733
       205.42354       349.67697
       205.38135       349.06380
       205.33918       348.44423
       205.29702       347.83380
       205.25489       347.26958
       205.21277       346.81508
       205.17066       346.54996
       205.12858       346.54636
       205.08651       346.84203
       205.04446       347.42397
       205.00242       348.23134
       204.96040       349.17676
       204.91840       350.17381
       204.87642       351.15533
       204.83445       352.09724
       204.79251       352.99037
       204.75057       353.82740
       204.70866       354.59295
       204.66676       355.26561
       204.62488       355.83071
       204.58302       356.29354
       204.54118       356.68102
       204.49935       357.02704
       204.45754       357.34748
       204.41574       357.61934
       204.37396       357.77891
       204.33220       357.74447
       204.29046       357.45561
       204.24874       356.91061
       204.20703       356.18192
       204.16533       355.39985
       204.12366       354.70966
       204.08200       354.22128
       204.04036       353.97017
       203.99874       353.90046
       203.95713       353.94960
       203.91554       354.03217
       203.87397       354.08986
       203.83241       354.11221
       203.79087       354.12881
       203.74935       354.18629
       203.70784       354.32554
       203.66636       354.57086
       203.62488       354.93301
       203.58343       355.41820
       203.54199       356.03165
       203.50057       356.76946
       203.45917       357.60213
       203.41778       358.46151
       203.37641       359.24362
       203.33506       359.83203
       203.29372       360.13462
       203.25240       360.11717
       203.21110       359.81691
       203.16981       359.32687
       203.12854       358.75587
       203.08729       358.20542
       203.04605       357.72492
       203.00483       357.31347
       202.96363       356.94082
       202.92244       356.57483
       202.88128       356.20040
       202.84012       355.82104
       202.79899       355.44642
       202.75787       355.07887
       202.71677       354.71192
       202.67568       354.34534
       202.63461       354.00827
       202.59356       353.77388
       202.55252       353.75083
       202.51150       354.04874
       202.47050       354.73084
       202.42952       355.77653
       202.38855       357.07491
       202.34759       358.45574
       202.30666       359.74271
       202.26574       360.79981
       202.22483       361.60633
       202.18395       362.20356
       202.14308       362.66480
       202.10222       363.05093
       202.06139       363.38027
       202.02057       363.62975
       201.97976       363.76262
       201.93898       363.76233
       201.89820       363.64997
       201.85745       363.47327
       201.81671       363.27410
       201.77599       363.05523
       201.73529       362.76942
       201.69460       362.34070
       201.65392       361.70886
       201.61327       360.87257
       201.57263       359.90580
       201.53200       358.93626
       201.49140       358.09585
       201.45081       357.46811
       201.41023       357.05916
       201.36968       356.83197
       201.32913       356.72911
       201.28861       356.72134
       201.24810       356.82635
       201.20761       357.08804
       201.16713       357.53138
       201.12667       358.12477
       201.08623       358.77979
       201.04580       359.39669
       201.00539       359.93318
       200.96499       360.45327
       200.92461       361.11690
       200.88425       362.10155
       200.84391       363.48927
       200.80358       365.18369
       200.76326       366.91947
       200.72296       368.38697
       200.68268       369.43284
       200.64242       370.24321
       200.60217       371.40362
       200.56194       373.76913
       200.52172       378.13356
       200.48152       384.86247
       200.44133       393.58802
       200.40116       403.13743
       200.36101       411.75983
       200.32087       417.59832
       200.28075       419.24978
       200.24065       416.20897
       200.20056       409.03087
       200.16049       399.15094
       200.12043       388.43445
       200.08039       378.62638
       200.04037       370.90198
       200.00036       365.66447
       199.96037       362.62862
       199.92039       361.11401
       199.88043       360.40096
       199.84049       359.99955
       199.80056       359.74364
       199.76065       359.71544
       199.72075       360.08214
       199.68087       360.88411
       199.64101       362.01403
       199.60116       363.24881
       199.56133       364.35996
       199.52151       365.22574
       199.48171       365.87842
       199.44192       366.46579
       199.40216       367.15460
       199.36240       368.03283
       199.32266       369.06322
       199.28294       370.10801
       199.24324       371.00495
       199.20355       371.64789
       199.16387       372.02740
       199.12422       372.21264
       199.08457       372.29066
       199.04495       372.30240
       199.00533       372.21446
       198.96574       371.94253
       198.92616       371.41579
       198.88660       370.64979
       198.84705       369.71293
       198.80752       368.75743
       198.76800       367.94201
       198.72850       367.36024
       198.68901       367.00632
       198.64954       366.79149
       198.61009       366.60011
       198.57065       366.35400
       198.53123       366.05029
       198.49182       365.75522
       198.45243       365.56122
       198.41306       365.53494
       198.37370       365.68690
       198.33435       365.97858
       198.29502       366.35960
       198.25571       366.80946
       198.21641       367.35611
       198.17713       368.05830
       198.13787       368.96146
       198.09861       370.05607
       198.05938       371.26930
       198.02016       372.45020
       197.98096       373.45963
       197.94177       374.21518
       197.90259       374.71339
       197.86344       375.01348
       197.82429       375.19043
       197.78517       375.28565
       197.74606       375.28436
       197.70696       375.13285
       197.66788       374.78475
       197.62882       374.24760
       197.58977       373.60025
       197.55073       372.96812
       197.51171       372.46846
       197.47271       372.15618
       197.43372       372.00165
       197.39475       371.91455
       197.35579       371.80170
       197.31685       371.62685
       197.27793       371.43815
       197.23902       371.34646
       197.20012       371.47943
       197.16124       371.90977
       197.12237       372.62528
       197.08353       373.54373
       197.04469       374.56293
       197.00587       375.61568
       196.96707       376.69560
       196.92828       377.83788
       196.88951       379.06669
       196.85075       380.34242
       196.81201       381.54385
       196.77328       382.50132
       196.73457       383.06693
       196.69587       383.18476
       196.65719       382.92174
       196.61852       382.43960
       196.57987       381.92079
       196.54124       381.48636
       196.50262       381.14881
       196.46401       380.82056
       196.42542       380.36628
       196.38684       379.71910
       196.34828       378.88714
       196.30974       377.95817
       196.27121       377.05394
       196.23269       376.27018
       196.19419       375.64346
       196.15571       375.16452
       196.11724       374.82705
       196.07879       374.67640
       196.04035       374.82060
       196.00192       375.38832
       195.96351       376.45204
       195.92512       377.96029
       195.88674       379.72301
       195.84838       381.46755
       195.81003       382.94356
       195.77169       384.02555
       195.73337       384.75944
       195.69507       385.32773
       195.65678       385.94843
       195.61851       386.75714
       195.58025       387.77322
       195.54200       388.87805
       195.50377       389.89580
       195.46556       390.68590
       195.42736       391.19584
       195.38918       391.44881
       195.35101       391.48118
       195.31285       391.27747
       195.27471       390.75343
       195.23659       389.80674
       195.19848       388.40921
       195.16038       386.68174
       195.12230       384.89587
       195.08424       383.38496
       195.04619       382.40304
       195.00815       382.00615
       194.97013       382.02685
       194.93213       382.16433
       194.89414       382.14700
       194.85616       381.87904
       194.81820       381.48668
       194.78025       381.23540
       194.74232       381.36618
       194.70440       381.95217
       194.66650       382.87039
       194.62861       383.91401
       194.59074       384.97397
       194.55288       386.15127
       194.51504       387.67155
       194.47721       389.56862
       194.43939       391.24536
       194.40160       391.13408
       194.36381       386.69457
