  Wavelength(um)          Flux(Jy)         Error(Jy)
         54.8075           58.0719          0.926830
         54.8270           58.5947           1.07379
         54.8465           58.3850           1.16958
         54.8660           57.0513          0.982716
         54.8855           59.6966           1.05706
         54.9050           58.1666           1.45252
         54.9245           59.8375          0.917434
         54.9440           58.6062           1.36537
         54.9635           59.1700           1.62525
         54.9830           58.0313           1.16781
         55.0025           59.5520           1.24531
         55.0220           58.7152           1.55409
         55.0415           61.0969           1.27271
         55.0610           58.7560           1.70112
         55.0805           59.3221           1.45946
         55.1000           61.2860           1.15300
         55.1196           60.4751           1.60706
         55.1391           59.7056           1.38094
         55.1586           59.6014           1.45290
         55.1781           59.2630           1.23466
         55.1976           58.8180           1.95460
         55.2171           60.9882           1.50760
         55.2366           59.9663           1.44881
         55.2561           60.3267           1.41782
         55.2756           62.1508           1.94711
         55.2951           59.8794           1.33096
         55.3147           59.5871           1.84630
         55.3342           60.1162           2.00730
         55.3537           59.6953           1.27984
         55.3732           61.2264           1.40179
         55.3927           63.5620           1.43170
         55.4122           59.8775           1.94807
         55.4317           61.9517           2.01151
         55.4513           60.6165           1.48242
         55.4708           61.2002           1.59936
         55.4903           60.2328           1.76514
         55.5098           61.6117          0.970555
         55.5293           61.8001           2.64769
         55.5489           61.6998           1.70892
         55.5684           61.4719           1.52743
         55.5879           61.8160           1.94345
         55.6074           63.0395           1.64844
         55.6269           63.0817           1.51756
         55.6465           62.1347           2.64804
         55.6660           62.5977           1.73836
         55.6855           62.7170           1.18941
         55.7050           62.3570           2.36771
         55.7246           64.2036           1.26828
         55.7441           64.8515           1.33555
         55.7636           62.5676           2.45351
         55.7832           63.7406           1.97322
         55.8027           63.5720           1.27789
         55.8222           63.1181           2.38216
         55.8417           61.2900           1.78172
         55.8613           64.2456           1.54935
         55.8808           63.5458           2.58030
         55.9003           64.9093           1.26286
         55.9199           64.3933           2.28898
         55.9394           64.5372           2.27413
         55.9589           66.0063           1.88161
         55.9785           63.2235           1.89114
         55.9980           63.9076           1.95765
         56.0175           65.0644           1.82444
         56.0371           64.1989           2.01927
         56.0566           65.0270           2.15782
         56.0761           65.4876           1.83780
         56.0957           65.0945           2.40838
         56.1152           64.8594           2.07313
         56.1348           66.4921           1.68555
         56.1543           65.1443           1.64583
         56.1738           66.6320           1.69323
         56.1934           65.6219           2.05134
         56.2129           65.1744           1.57157
         56.2325           64.7006           1.91607
         56.2520           67.4517           1.85325
         56.2715           67.3607           1.49261
         56.2911           67.5597           2.32708
         56.3106           69.3317           1.51283
         56.3302           66.3920           2.05693
         56.3497           67.3299           2.42097
         56.3693           66.0084           1.59194
         56.3888           65.1361           2.08192
         56.4084           67.6154           1.96450
         56.4279           67.0414           1.80916
         56.4475           67.3740           2.05359
         56.4670           67.6123           1.98499
         56.4866           67.6073           1.79436
         56.5061           69.2172           1.53908
         56.5257           69.5214           1.52280
         56.5452           67.7045           1.58953
         56.5648           70.9157           1.63167
         56.5843           67.8846           2.01803
         56.6039           68.3247           1.43060
         56.6234           69.9953           1.14022
         56.6430           68.5431           2.13787
         56.6625           69.9272           1.56649
         56.6821           69.5135           1.69861
         56.7016           69.5772           1.98710
         56.7212           70.4147           1.21718
         56.7408           70.3608           1.72356
         56.7603           68.7784           1.76156
         56.7799           68.5081           1.37406
         56.7994           71.6391           1.21005
         56.8190           69.7312           1.83830
         56.8386           68.7798           1.16555
         56.8581           70.6552           1.37905
         56.8777           69.5370           1.52809
         56.8972           69.8361           1.26180
         56.9168           71.2026           1.78383
         56.9364           67.9570           1.60664
         56.9559           67.6181           1.32284
         56.9755           71.6523           1.31138
         56.9951           68.8236           1.50673
         57.0146           68.6465           1.25620
         57.0342           71.3700           1.47138
         57.0538           68.5563           1.27708
         57.0733           68.8904           1.25518
         57.0929           72.1919           1.56974
         57.1125           71.2198           1.45078
         57.1320           68.5815           1.30540
         57.1516           72.3770           1.42424
         57.1712           69.7334           1.12572
         57.1907           70.0062           1.02237
         57.2103           69.6718           1.16832
         57.2299           70.4425           1.35778
         57.2494           69.0103           1.31465
         57.2690           69.5300           1.69483
         57.2886           70.9431           1.21448
         57.3082           67.9097           1.11348
         57.3277           71.6973           1.19940
         57.3473           69.2799           1.45333
         57.3669           69.8823           1.19319
         57.3865           71.3211           1.72865
         57.4060           68.8969           1.49460
         57.4256           69.7017           1.49600
         57.4452           69.7432           1.33613
         57.4648           70.5067           1.39932
         57.4843           70.9746           1.34548
         57.5039           71.2421           1.69164
         57.5235           70.5600           1.64842
         57.5431           70.1909           1.63845
         57.5627           71.3796           1.60719
         57.5822           70.1093           1.64435
         57.6018           70.4402           1.83158
         57.6214           71.0997           1.77373
         57.6410           70.7648           2.07309
         57.6606           71.6013           1.88028
         57.6802           71.9449           1.64542
         57.6997           71.1739           2.04662
         57.7193           73.9369           2.21146
         57.7389           73.1856           1.94314
         57.7585           72.3241           1.93755
         57.7781           72.9858           2.01097
         57.7977           72.2072           2.59777
         57.8173           72.7243           2.13712
         57.8368           72.0825           2.13720
         57.8564           73.6017           2.33446
         57.8760           72.7342           2.15346
         57.8956           74.7574           2.05878
         57.9152           73.8707           2.33844
         57.9348           73.9954           2.11795
         57.9544           75.0947           1.84342
         57.9740           73.9130           2.89659
         57.9936           74.8983           2.13174
         58.0132           74.8687           2.06885
         58.0328           76.0905           2.82314
         58.0523           75.0430           2.23040
         58.0719           75.1849           2.39632
         58.0915           76.4926           2.45909
         58.1111           76.5904           2.47517
         58.1307           75.7599           2.16894
         58.1503           76.4845           1.83412
         58.1699           76.8617           2.87757
         58.1895           76.1652           2.61412
         58.2091           75.7409           2.21225
         58.2287           74.9866           2.18876
         58.2483           75.8894           2.62238
         58.2679           76.0356           2.24811
         58.2875           76.2676           3.27671
         58.3071           75.3818           2.77744
         58.3267           76.8795           2.52025
         58.3463           76.5145           2.65576
         58.3659           76.2865           2.01476
         58.3855           77.3708           2.09495
         58.4051           77.4283           3.58202
         58.4247           75.4557           3.63812
         58.4443           75.9902           2.00510
         58.4639           76.1189           3.37596
         58.4835           76.7976           2.27277
         58.5031           76.5073           2.34317
         58.5227           78.0236           3.51359
         58.5423           78.5570           2.66585
         58.5620           79.8293           2.18256
         58.5816           76.4000           3.51431
         58.6012           77.1749           2.64614
         58.6208           77.7506           2.17494
         58.6404           76.9851           3.95934
         58.6600           77.0201           2.51503
         58.6796           77.7079           1.90756
         58.6992           77.6994           4.09871
         58.7188           78.0535           2.62286
         58.7384           78.8323           1.75027
         58.7580           77.7138           3.40103
         58.7777           76.7641           3.50037
         58.7973           77.2086           2.28547
         58.8169           76.7136           3.09260
         58.8365           77.4519           2.69104
         58.8561           77.0346           3.04677
         58.8757           77.3819           2.68090
         58.8953           77.4104           2.53377
         58.9149           78.9442           2.63868
         58.9346           77.7742           4.09223
         58.9542           78.2704           2.44661
         58.9738           77.6807           2.23597
         58.9934           77.3531           3.44760
         59.0130           77.8482           2.49544
         59.0326           77.7318           2.79555
         59.0523           78.5603           3.65987
         59.0719           78.6778           2.75743
         59.0915           78.2974           2.13440
         59.1111           78.2453           2.41172
         59.1307           77.5297           3.05988
         59.1504           79.1853           2.63710
         59.1700           77.5435           2.71249
         59.1896           79.4643           3.13833
         59.2092           79.7884           1.99448
         59.2289           78.7381           2.65488
         59.2485           79.9138           3.22809
         59.2681           80.2208           2.56223
         59.2877           79.6347           1.91225
         59.3073           79.1480           3.03624
         59.3270           79.9497           2.32778
         59.3466           80.8602           2.40260
         59.3662           81.1931           4.04939
         59.3858           80.2441           2.46672
         59.4055           81.4979           1.85601
         59.4251           80.4394           2.89599
         59.4447           81.0872           1.81980
         59.4644           79.5764           2.28201
         59.4840           82.1044           3.62818
         59.5036           80.9258           2.40253
         59.5232           80.7570           2.25911
         59.5429           82.1239           3.32201
         59.5625           82.6917           2.75555
         59.5821           81.9717           2.57729
         59.6018           80.2052           2.54407
         59.6214           81.3829           2.48029
         59.6410           81.4933           2.75393
         59.6607           81.8357           3.16847
         59.6803           82.5354           2.58004
         59.6999           82.3167           2.37152
         59.7196           80.8747           2.67986
         59.7392           83.5404           2.86849
         59.7588           82.2354           3.01626
         59.7785           82.6319           2.22471
         59.7981           83.8378           2.81090
         59.8177           83.3402           1.54987
         59.8374           85.2252           2.80950
         59.8570           85.2784           2.98377
         59.8766           83.5077           2.50099
         59.8963           84.3222           2.42332
         59.9159           83.5322           3.88638
         59.9355           84.6816           1.73995
         59.9552           82.5594           2.11879
         59.9748           83.2863           3.06474
         59.9945           83.2605           2.43404
         60.0141           84.7792           2.24555
         60.0337           83.8373           3.22196
         60.0534           82.9837           2.35694
         60.0730           83.0564           2.01266
         60.0927           83.6246           3.47069
         60.1123           83.7864           2.07599
         60.1319           82.0165           2.29347
         60.1516           83.0134           2.84149
         60.1712           84.3087           3.05700
         60.1909           84.1514           2.17395
         60.2105           84.7012           2.51646
         60.2302           81.7798           2.51761
         60.2498           84.1582           3.02929
         60.2694           83.2895           1.82599
         60.2891           83.9443           2.39663
         60.3087           83.4148           2.26659
         60.3284           83.5023           2.12151
         60.3480           84.6271           3.73717
         60.3677           83.8684           2.23663
         60.3873           86.0358           1.95838
         60.4070           83.6526           3.30255
         60.4266           85.7095           2.38237
         60.4463           85.0358           1.97272
         60.4659           83.9709           3.22091
         60.4856           84.3747           3.10295
         60.5052           85.6172           1.81267
         60.5249           85.4043           3.42804
         60.5445           83.6727           2.93671
         60.5642           85.2306           2.33813
         60.5838           85.0645           3.10409
         60.6035           85.6482           2.83651
         60.6231           84.3625           2.41851
         60.6428           85.4372           2.54853
         60.6624           85.7484           2.63518
         60.6821           85.9582           2.49372
         60.7017           86.6148           2.03466
         60.7214           85.9022           2.86248
         60.7410           89.2757           2.31891
         60.7607           86.2611           2.48885
         60.7803           85.3865           3.24902
         60.8000           86.2785           1.91766
         60.8197           86.5095           2.16465
         60.8393           87.1280           3.62480
         60.8590           85.4157           2.50249
         60.8786           88.1424           1.83873
         60.8983           88.4413           2.72607
         60.9179           87.3577           2.10374
         60.9376           86.7277           2.13557
         60.9573           86.8039           2.27605
         60.9769           86.8744           2.69418
         60.9966           87.6666           2.76659
         61.0162           88.2623           2.47379
         61.0359           86.1350           2.97943
         61.0555           89.5697           3.08002
         61.0752           88.5394           1.94156
         61.0949           88.2521           3.02612
         61.1145           88.6300           2.42207
         61.1342           88.4900           2.75270
         61.1538           89.3232           3.39907
         61.1735           87.3754           2.29742
         61.1932           90.2864           2.25520
         61.2128           90.9478           2.92503
         61.2325           88.2327           2.36896
         61.2522           89.7261           1.74208
         61.2718           89.0311           2.59506
         61.2915           88.3580           3.29992
         61.3111           90.0358           2.65680
         61.3308           89.5816           2.58189
         61.3505           89.6377           3.40853
         61.3701           90.3821           2.31111
         61.3898           90.8075           1.61402
         61.4095           90.2927           2.93579
         61.4291           89.9700           2.94848
         61.4488           89.8546           1.98859
         61.4685           90.1071           2.55407
         61.4881           88.5803           2.29000
         61.5078           90.5848           1.79202
         61.5275           91.1550           2.14100
         61.5471           90.1802           2.71253
         61.5668           89.2351           2.29563
         61.5865           90.3414           1.91661
         61.6061           92.5837           2.09400
         61.6258           91.0595           1.71093
         61.6455           88.6061           1.65880
         61.6652           92.2858           1.77263
         61.6848           93.6847           1.79473
         61.7045           94.4844           1.46539
         61.7242           93.1368           1.68766
         61.7438           94.2174           1.49836
         61.7635           94.5823           1.31077
         61.7832           93.4420           1.23140
         61.8029           93.8337           1.76394
         61.8225           93.1656          0.919433
         61.8422           94.7848           1.58451
         61.8619           97.0443           1.25929
         61.8815           98.2336           1.09091
         61.9012           95.8424           1.43533
         61.9209           98.4206          0.632026
         61.9406           96.0795          0.963233
         61.9602           94.8470          0.825111
         61.9799           97.3326          0.931661
         61.9996           96.6812          0.726098
         62.0193           97.7441          0.754286
         62.0389           97.8531          0.830073
         62.0586           98.8185          0.827333
         62.0783           95.8502          0.652655
         62.0980           98.9938          0.910113
         62.1176           98.8355          0.982867
         62.1373           96.4044          0.371222
         62.1570           96.5645          0.978030
         62.1767           94.9315          0.781221
         62.1964           96.8453          0.708717
         62.2160           95.3319          0.674030
         62.2357           97.1951          0.578610
         62.2554           97.2314          0.826804
         62.2751           93.4414          0.560844
         62.2947           94.4660          0.785699
         62.3144           94.4668          0.980821
         62.3341           96.4412          0.603902
         62.3538           93.4047          0.748355
         62.3735           92.2117          0.925494
         62.3931           91.9369          0.506713
         62.4128           91.8550          0.889252
         62.4325           91.9016          0.645083
         62.4522           89.5294          0.657550
         62.4719           90.9592           1.04026
         62.4915           90.0743          0.531869
         62.5112           91.0758          0.782354
         62.5309           88.3733          0.729424
         62.5506           87.0709          0.604942
         62.5703           88.5737          0.783645
         62.5900           89.0918          0.567610
         62.6096           89.8792          0.763772
         62.6293           90.4027           1.20246
         62.6490           92.0536          0.691229
         62.6687           91.1920           1.15935
         62.6884           91.0382          0.724133
         62.7081           90.8668          0.769937
         62.7277           90.5280           1.23937
         62.7474           90.8395          0.795861
         62.7671           89.5342           1.03978
         62.7868           88.7320          0.940248
         62.8065           90.8155           1.13755
         62.8262           93.8017          0.869055
         62.8459           90.7912          0.741515
         62.8655           90.4690           1.43241
         62.8852           93.9224          0.773958
         62.9049           91.1417           1.38250
         62.9246           93.0953           1.47313
         62.9443           93.1559           1.11499
         62.9640           93.5512           1.14135
         62.9837           92.6260           1.15618
         63.0034           91.1509          0.855442
         63.0230           93.3549           1.43270
         63.0427           94.7536          0.933309
         63.0624           94.3321           1.55107
         63.0821           92.3748           1.13560
         63.1018           94.6120           1.22833
         63.1215           98.8823           1.33245
         63.1412           110.403          0.966552
         63.1609           125.260          0.784327
         63.1806           152.372          0.972486
         63.2003           131.201          0.700132
         63.2199           105.045           1.19369
         63.2396           95.5840           1.49447
         63.2593           94.9999           1.10301
         63.2790           96.4437           1.23053
         63.2987           95.2917           1.62510
         63.3184           97.6551           1.58136
         63.3381           96.2289          0.982902
         63.3578           96.4511           1.91001
         63.3775           93.6940           1.89012
         63.3972           95.0769           1.54322
         63.4169           94.9675           1.47417
         63.4365           96.0859           2.40528
         63.4562           95.8639           1.28099
         63.4759           96.4530           1.58049
         63.4956           96.1206           1.58977
         63.5153           95.8100           1.59580
         63.5350           97.2776           1.37836
         63.5547           96.5848           1.51048
         63.5744           97.9797           1.72580
         63.5941           97.1546           1.27405
         63.6138           95.8390           1.60652
         63.6335           96.6928           1.84541
         63.6532           98.9767           1.88755
         63.6729           98.4104           1.28721
         63.6926           97.8320           1.89070
         63.7123           98.1239           1.60487
         63.7320           99.2242           1.31392
         63.7517           99.4024           1.99635
         63.7714           99.1569           1.54251
         63.7911           101.806           1.25741
         63.8107           100.604           1.46822
         63.8304           99.7129           1.62032
         63.8501           101.263           1.20075
         63.8698           99.9547           1.47020
         63.8895           100.870           1.91805
         63.9092           101.178           1.50583
         63.9289           101.691           1.34075
         63.9486           101.601           1.96517
         63.9683           101.895           2.31858
         63.9880           101.482           1.38710
         64.0077           99.9107           1.21675
         64.0274           102.528           2.12537
         64.0471           99.8467           1.84758
         64.0668           101.868           1.32878
         64.0865           103.641           1.73296
         64.1062           104.385           1.46471
         64.1259           104.909           1.65066
         64.1456           102.761           1.81883
         64.1653           101.809           1.58596
         64.1850           101.995           1.67707
         64.2047           103.951           1.88297
         64.2244           102.695           1.92782
         64.2441           103.253           1.83319
         64.2638           101.519           1.12960
         64.2835           102.837           1.67737
         64.3032           106.105           1.98465
         64.3229           102.697           1.54116
         64.3426           104.590           1.77374
         64.3623           104.973           1.55682
         64.3820           103.820           1.08737
         64.4017           104.832           1.70624
         64.4214           103.050           1.67267
         64.4411           105.363           1.84715
         64.4608           103.516           1.84409
         64.4805           103.819           1.65178
         64.5002           103.062           1.81225
         64.5199           104.081           1.41679
         64.5396           104.770           1.71500
         64.5593           104.413           2.21243
         64.5790           105.121           2.06881
         64.5987           107.726           1.23277
         64.6184           106.558           1.98951
         64.6381           105.807           2.28344
         64.6578           105.810           1.32667
         64.6775           106.968           2.06511
         64.6972           106.218           1.91737
         64.7169           105.937           1.68507
         64.7366           106.757           1.86129
         64.7563           105.700           2.00092
         64.7760           105.125           1.60257
         64.7957           107.278           1.71670
         64.8155           105.740           2.08546
         64.8352           105.199           1.82606
         64.8549           105.451           1.54387
         64.8746           105.927           1.86263
         64.8943           104.679           1.81923
         64.9140           106.881           1.98035
         64.9337           107.253           1.43320
         64.9534           106.907           1.92273
         64.9731           104.757           2.31841
         64.9928           106.219           1.51880
         65.0125           104.987           2.09993
         65.0322           106.135           1.97420
         65.0519           107.270           2.02659
         65.0716           107.328           1.98014
         65.0913           106.587           2.34939
         65.1110           106.332           2.10677
         65.1307           109.897           1.76663
         65.1504           108.374           2.33420
         65.1701           107.402           2.21315
         65.1898           108.783           1.98968
         65.2095           107.503           1.98641
         65.2292           106.781           2.42710
         65.2489           106.794           2.56672
         65.2687           109.220           2.11919
         65.2884           109.329           2.38759
         65.3081           108.372           1.52293
         65.3278           107.312           2.24819
         65.3475           106.485           2.33406
         65.3672           107.365           2.39392
         65.3869           107.974           2.35300
         65.4066           108.296           2.24786
         65.4263           108.359           2.87449
         65.4460           109.375           2.38589
         65.4657           110.068           2.01413
         65.4854           109.557           2.56933
         65.5051           109.597           2.22027
         65.5248           108.684           2.27624
         65.5445           108.084           2.97871
         65.5642           109.766           2.64387
         65.5839           110.028           1.99483
         65.6037           109.225           2.22171
         65.6234           110.948           2.57067
         65.6431           112.241           2.20649
         65.6628           114.541           1.90715
         65.6825           114.671           2.30276
         65.7022           113.792           1.89761
         65.7219           113.911           2.38729
         65.7416           110.825           1.98973
         65.7613           110.104           2.27374
         65.7810           112.100           2.42609
         65.8007           111.952           2.05292
         65.8204           109.551           2.46000
         65.8401           111.880           2.20063
         65.8598           110.644           2.06537
         65.8795           110.150           2.59495
         65.8992           113.008           1.95413
         65.9190           112.297           2.14449
         65.9387           112.942           2.13017
         65.9584           113.028           1.84018
         65.9781           113.662           2.50061
         65.9978           111.953           2.02310
         66.0175           112.623           1.99793
         66.0372           113.954           2.31136
         66.0569           113.617           2.19027
         66.0766           112.854           1.89344
         66.0963           114.040           2.27338
         66.1160           116.360           1.79804
         66.1357           113.622           1.90368
         66.1554           114.953           2.15261
         66.1751           115.668           1.77599
         66.1949           112.070           1.76073
         66.2146           113.617           1.98444
         66.2343           115.181           1.80969
         66.2540           114.218           2.09192
         66.2737           113.994           1.62141
         66.2934           114.175           2.29458
         66.3131           115.783           1.86714
         66.3328           115.251           1.76317
         66.3525           114.005           1.74482
         66.3722           116.797           1.80382
         66.3919           113.685           1.80652
         66.4116           114.505           1.88366
         66.4313           117.268           2.29713
         66.4510           113.786           1.75314
         66.4707           115.841           1.67614
         66.4905           116.345           2.16166
         66.5102           113.686           2.35185
         66.5299           113.310           1.91570
         66.5496           114.773           1.77134
         66.5693           118.636           1.68769
         66.5890           115.233           2.41068
         66.6087           115.399           1.95460
         66.6284           115.369           2.13273
         66.6481           115.580           2.35005
         66.6678           115.451           2.02933
         66.6875           113.991           1.49887
         66.7072           116.165           2.00957
         66.7269           115.469           2.08859
         66.7466           116.241           2.41457
         66.7663           116.911           2.34378
         66.7861           115.993           2.69664
         66.8058           117.326           2.47548
         66.8255           116.820           2.38903
         66.8452           113.855           2.15347
         66.8649           117.031           1.76685
         66.8846           117.187           1.95863
         66.9043           116.832           2.71295
         66.9240           118.424           2.00833
         66.9437           117.611           2.36628
         66.9634           117.068           1.92920
         66.9831           118.887           2.31538
         67.0028           116.749           2.16861
         67.0225           119.665           2.10111
         67.0422           117.901           2.41836
         67.0619           117.169           1.60958
         67.0816           120.024           2.34396
         67.1013           117.085           1.92017
         67.1211           118.897           2.22372
         67.1408           117.909           2.79626
         67.1605           117.978           2.23968
         67.1802           118.112           1.58728
         67.1999           118.444           2.22040
         67.2196           117.482           2.84079
         67.2393           119.700           1.82461
         67.2590           118.664           1.79621
         67.2787           120.452           2.61553
         67.2984           120.042           1.88887
         67.3181           120.362           1.92968
         67.3378           123.026           2.07301
         67.3575           122.753           1.85695
         67.3772           122.550           1.89088
         67.3969           121.310           2.16582
         67.4166           122.599           2.32655
         67.4363           121.844           1.79942
         67.4560           119.982           2.08340
         67.4757           123.662           2.16349
         67.4954           120.592           1.71658
         67.5151           120.782           1.62944
         67.5348           122.140           2.25521
         67.5545           121.923           2.43808
         67.5743           121.967           2.05144
         67.5940           121.314           2.58356
         67.6137           123.131           2.06046
         67.6334           123.559           2.05187
         67.6531           122.987           2.17300
         67.6728           122.247           2.22815
         67.6925           122.247           1.69366
         67.7122           124.689           2.02651
         67.7319           124.893           2.00237
         67.7516           122.785           2.08463
         67.7713           125.821           2.38626
         67.7910           124.075           2.23148
         67.8107           124.753           2.08970
         67.8304           123.415           1.91395
         67.8501           126.595           1.78664
         67.8698           124.920           2.07202
         67.8895           123.485           2.34690
         67.9092           126.154           2.24154
         67.9289           124.223           2.36473
         67.9486           124.866           1.64216
         67.9683           125.306           2.15129
         67.9880           124.675           2.39694
         68.0077           124.966           1.78869
         68.0274           126.488           2.15735
         68.0471           127.731           2.45331
         68.0668           125.110           2.34666
         68.0865           126.845           2.30270
         68.1062           125.341           2.05600
         68.1259           125.236           2.16027
         68.1456           125.299           1.99553
         68.1653           126.981           2.84017
         68.1850           127.540           2.16807
         68.2047           127.484           2.43906
         68.2244           128.295           2.59529
         68.2441           125.452           2.21276
         68.2638           128.173           2.22016
         68.2835           128.238           2.39149
         68.3032           128.366           2.65379
         68.3229           125.747           2.47424
         68.3426           129.058           2.32358
         68.3623           129.139           2.32506
         68.3820           125.367           2.55969
         68.4017           128.160           2.26654
         68.4214           126.209           2.29282
         68.4411           124.930           2.13716
         68.4608           127.484           2.20937
         68.4805           125.117           2.21903
         68.5002           127.308           2.44346
         68.5199           127.237           2.97729
         68.5395           127.587           2.03831
         68.5592           126.945           2.31411
         68.5789           125.641           2.39362
         68.5986           126.945           2.21917
         68.6183           127.130           1.83857
         68.6380           126.440           2.35264
         68.6577           127.198           2.26962
         68.6774           126.820           2.90086
         68.6971           127.959           1.82748
         68.7168           128.335           2.07242
         68.7365           127.493           2.31045
         68.7562           126.240           1.81319
         68.7759           127.664           2.14770
         68.7956           126.666           2.26197
         68.8153           126.071           2.12873
         68.8350           129.279           2.21950
         68.8547           129.812           1.88509
         68.8744           128.656           2.36544
         68.8940           128.339           2.16058
         68.9137           127.198           2.20588
         68.9334           127.400           2.24077
         68.9531           127.050           2.06763
         68.9728           124.594           1.38074
         68.9925           128.417           2.48693
         69.0122           129.635           1.66257
         69.0319           131.397           2.24259
         69.0516           131.665           2.27933
         69.0713           133.394           2.01692
         69.0910           131.046           2.27268
         69.1106           128.849           2.36658
         69.1303           129.892           2.12132
         69.1500           128.322           2.16860
         69.1697           128.946           2.18004
         69.1894           129.577           1.53620
         69.2091           128.606           2.29523
         69.2288           128.305           2.42551
         69.2485           129.921           2.18411
         69.2682           130.306           2.01596
         69.2878           131.275           2.22224
         69.3075           131.937           2.23447
         69.3272           131.187           2.53583
         69.3469           132.227           1.67609
         69.3666           130.325           2.16993
         69.3863           131.384           1.44464
         69.4060           130.268           2.23581
         69.4257           131.219           2.32011
         69.4453           132.135           2.47220
         69.4650           132.353           1.97270
         69.4847           130.619           1.56051
         69.5044           132.947           2.41873
         69.5241           133.366           2.01168
         69.5438           130.621           1.88184
         69.5635           131.313           1.58235
         69.5831           133.302           2.00717
         69.6028           131.399           1.88382
         69.6225           133.642           2.16531
         69.6422           133.468           2.25787
         69.6619           131.867           1.60237
         69.6815           134.300           2.40686
         69.7012           129.012           2.08702
         69.7209           129.378           2.08328
         69.7406           132.076           1.79704
         69.7603           131.258           1.61862
         69.7800           132.111           2.51378
         69.7996           132.857           1.84727
         69.8193           132.400           1.81471
         69.8390           133.062           1.94613
         69.8587           130.535           2.11778
         69.8784           130.271           1.75231
         69.8980           130.359           1.92374
         69.9177           133.814           1.75984
         69.9374           133.708           1.60871
         69.9571           131.461           1.92724
         69.9768           132.802           1.81347
         69.9964           132.302           1.76435
         70.0161           131.842           2.17841
         70.0358           134.139           2.08288
         70.0555           130.990           1.78269
         70.0751           134.793           2.02825
         70.0948           133.194           1.65005
         70.1145           133.714           2.10349
         70.1342           133.218           2.25101
         70.1538           132.480           2.11237
         70.1735           131.333           2.05973
         70.1932           130.885           2.06285
         70.2129           132.002           1.59876
         70.2325           133.189           2.32675
         70.2522           131.884           2.40307
         70.2719           135.151           1.99692
         70.2916           132.105           2.08896
         70.3112           132.260           2.44675
         70.3309           132.976           1.76596
         70.3506           131.105           1.82032
         70.3702           132.199           1.86546
         70.3899           133.768           1.74868
         70.4096           133.004           2.01381
         70.4293           134.263           2.51067
         70.4489           132.778           2.09636
         70.4686           132.292           2.06846
         70.4883           135.036           1.69168
         70.5079           134.296           1.72831
         70.5276           133.011           1.68945
         70.5473           134.278           2.18463
         70.5669           135.545           2.24971
         70.5866           134.242           1.78828
         70.6063           135.155           2.46002
         70.6259           133.723           1.63250
         70.6456           133.166           1.96669
         70.6653           135.820           2.10366
         70.6849           135.275           1.93891
         70.7046           133.747           1.72158
         70.7243           135.543           2.06189
         70.7439           134.581           1.85828
         70.7636           134.494           2.32561
         70.7833           137.080           2.09402
         70.8029           134.821           1.55189
         70.8226           135.318           1.62182
         70.8422           137.215           2.14553
         70.8619           137.503           1.74653
         70.8816           139.076           2.06852
         70.9012           140.476           1.67118
         70.9209           141.192           1.94361
         70.9406           138.530           2.36997
         70.9602           137.594           2.17036
         70.9799           138.333           1.82779
         70.9995           137.839           1.90930
         71.0192           140.079           2.19699
         71.0389           138.138           2.00084
         71.0585           139.730           2.13812
         71.0782           138.572           2.36513
         71.0978           139.548           2.37327
         71.1175           140.004           2.19871
         71.1371           140.917           2.89688
         71.1568           141.159           2.09528
         71.1765           142.342           2.19833
         71.1961           142.052           2.34075
         71.2158           142.695           2.49416
         71.2354           142.301           2.95251
         71.2551           141.083           3.28594
         71.2747           140.924           2.47743
         71.2944           142.421           2.25488
         71.3140           140.731           3.03737
         71.3337           140.555           2.70250
         71.3533           142.482           2.00880
         71.3730           141.853           1.82661
         71.3926           141.042           2.72139
         71.4123           141.616           2.40984
         71.4319           140.953           2.67784
         71.4516           141.570           2.60723
         71.4712           139.878           1.74054
         71.4909           142.896           2.91124
         71.5105           142.338           2.91474
         71.5302           143.187           2.22322
         71.5498           140.472           2.02162
         71.5695           142.910           2.95919
         71.5891           142.685           2.81840
         71.6088           141.617           2.06045
         71.6284           142.688           2.76463
         71.6481           142.509           2.78713
         71.6677           142.614           3.07906
         71.6873           144.068           3.25392
         71.7070           141.172           3.36835
         71.7266           144.059           2.24861
         71.7463           141.639           2.59272
         71.7659           142.370           2.56823
         71.7856           142.840           2.92292
         71.8052           142.984           2.24652
         71.8248           142.122           2.55748
         71.8445           142.851           2.98446
         71.8641           140.688           2.00683
         71.8838           143.144           2.64343
         71.9034           143.515           3.14284
         71.9230           141.963           2.10054
         71.9427           144.853           2.62118
         71.9623           144.232           3.28500
         71.9819           144.289           2.38249
         72.0016           143.340           2.47896
         72.0212           142.890           2.99499
         72.0409           142.533           2.43995
         72.0605           141.991           2.45778
         72.0801           143.310           2.35755
         72.0998           143.210           2.68684
         72.1194           143.063           3.33295
         72.1390           142.742           2.52696
         72.1587           142.215           2.23083
         72.1783           145.018           2.42622
         72.1979           142.808           2.81117
         72.2176           142.645           2.11733
         72.2372           142.552           2.31555
         72.2568           143.212           2.81969
         72.2764           144.042           2.79359
         72.2961           145.295           2.13454
         72.3157           143.079          0.942718
         72.3353           139.879          0.664559
         72.3550           144.350          0.748611
         72.3746           145.077          0.834055
         72.3942           146.724          0.794445
         72.4138           142.791          0.661477
         72.4335           143.546          0.758978
         72.4531           145.284          0.536801
         72.4727           143.241          0.904656
         72.4923           143.797          0.766791
         72.5119           146.405          0.787683
         72.5316           144.204          0.649967
         72.5512           147.281          0.614105
         72.5708           146.105          0.860516
         72.5904           145.991          0.514035
         72.6101           146.928          0.987326
         72.6297           145.231          0.604972
         72.6493           145.907          0.867338
         72.6689           147.170          0.489992
         72.6885           146.531          0.931751
         72.7081           151.871          0.806332
         72.7278           145.386           1.16807
         72.7474           146.451          0.813044
         72.7670           147.651          0.849427
         72.7866           144.986          0.687414
         72.8062           147.222          0.666986
         72.8258           150.446           1.05933
         72.8454           149.991          0.809774
         72.8651           154.445          0.831819
         72.8847           147.925           1.27641
         72.9043           150.318           1.12196
         72.9239           148.029           1.00189
         72.9435           147.634          0.658226
         72.9631           149.043          0.763994
         72.9827           149.426          0.845745
         73.0023           147.405          0.906902
         73.0219           148.803           1.27486
         73.0415           150.448          0.892778
         73.0612           149.245           1.02061
         73.0808           149.489          0.756850
         73.1004           151.433           1.21841
         73.1200           149.068          0.540842
         73.1396           151.747           1.16199
         73.1592           147.325          0.757174
         73.1788           150.221          0.719118
         73.1984           151.830          0.891268
         73.2180           150.127           1.19601
         73.2376           150.022          0.887160
         73.2572           151.933           1.07057
         73.2768           151.019          0.786804
         73.2964           148.909          0.833809
         73.3160           152.155           1.00448
         73.3356           151.759          0.862274
         73.3552           152.302          0.975614
         73.3748           150.308          0.695379
         73.3944           150.092          0.941397
         73.4140           151.554          0.717496
         73.4336           152.365           1.15275
         73.4532           152.693          0.460299
         73.4727           152.501           1.02977
         73.4923           151.898          0.829983
         73.5119           153.938           1.55528
         73.5315           150.795          0.496994
         73.5511           152.358           1.25916
         73.5707           153.358          0.660695
         73.5903           154.568           1.19625
         73.6099           152.129          0.802432
         73.6295           153.617          0.835366
         73.6491           154.587           1.12093
         73.6686           151.442          0.896668
         73.6882           154.391           1.01193
         73.7078           153.093          0.825026
         73.7274           153.264           1.09682
         73.7470           152.517          0.868709
         73.7666           151.649           1.01686
         73.7862           153.818          0.823486
         73.8057           155.011          0.805391
         73.8253           153.992          0.944505
         73.8449           154.366           1.15945
         73.8645           152.410          0.840241
         73.8841           154.596           1.26809
         73.9036           155.611          0.947590
         73.9232           152.606           1.22461
         73.9428           152.357          0.815858
         73.9624           154.009           1.14275
         73.9819           156.081          0.736056
         74.0015           154.902           1.41372
         74.0211           153.493          0.937982
         74.0407           157.758           1.60945
         74.0602           155.251          0.985834
         74.0798           156.652          0.961321
         74.0994           153.778          0.987677
         74.1190           154.844          0.873387
         74.1385           158.240          0.903566
         74.1581           157.046          0.963507
         74.1777           157.661          0.924085
         74.1972           156.990          0.925736
         74.2168           159.227          0.887835
         74.2364           158.607           1.36496
         74.2559           156.195          0.962447
         74.2755           155.832          0.932330
         74.2951           158.620           1.05933
         74.3146           160.795           1.13224
         74.3342           159.281          0.797657
         74.3538           158.626          0.851166
         74.3733           160.483          0.999734
         74.3929           161.542           1.06797
         74.4124           160.879           1.54876
         74.4320           158.004          0.838788
         74.4516           160.107           1.25103
         74.4711           161.468           1.07274
         74.4907           161.364           1.35720
         74.5102           158.730           1.11591
         74.5298           162.608           1.33196
         74.5493           160.457          0.910747
         74.5689           159.517           1.49884
         74.5884           161.690           1.14928
         74.6080           161.310           1.39064
         74.6275           158.978           1.41360
         74.6471           161.256           1.44947
         74.6666           164.245           1.39409
         74.6862           163.714           1.34254
         74.7057           162.228           1.12397
         74.7253           165.310           1.02757
         74.7448           162.682           1.14797
         74.7644           160.760           1.02202
         74.7839           163.003           1.38882
         74.8035           162.934           1.16278
         74.8230           164.970           1.07479
         74.8426           164.060           1.28076
         74.8621           165.515           1.37370
         74.8816           170.057           1.56927
         74.9012           165.584           1.53715
         74.9207           161.536           1.01331
         74.9403           163.889           1.57239
         74.9598           164.977          0.908010
         74.9793           163.839           1.20824
         74.9989           162.731          0.847580
         75.0184           161.796           1.10645
         75.0380           164.031          0.740473
         75.0575           163.135           1.31008
         75.0770           162.444          0.874503
         75.0966           162.943           1.14057
         75.1161           164.436           1.13713
         75.1356           165.775           1.15090
         75.1551           163.745          0.927809
         75.1747           165.518           1.06234
         75.1942           166.713          0.885649
         75.2137           164.034          0.989694
         75.2333           165.734          0.771199
         75.2528           164.919          0.916205
         75.2723           167.283          0.974536
         75.2918           166.451          0.740595
         75.3114           167.818          0.841570
         75.3309           166.230          0.790329
         75.3504           169.082          0.679084
         75.3699           170.039          0.634023
         75.3894           174.542          0.895767
         75.4090           168.799          0.868275
         75.4285           169.825          0.768215
         75.4480           169.378           1.14025
         75.4675           169.941          0.823194
         75.4870           166.991          0.640347
         75.5065           166.423          0.975569
         75.5261           168.499          0.667741
         75.5456           168.531           1.02634
         75.5651           166.043          0.477208
         75.5846           169.585           1.04961
         75.6041           171.650          0.538985
         75.6236           169.768          0.967713
         75.6431           169.257          0.501118
         75.6626           167.887          0.799250
         75.6821           169.823          0.679121
         75.7016           168.519          0.972089
         75.7212           167.969          0.381150
         75.7407           170.151          0.867352
         75.7602           170.323          0.572303
         75.7797           170.250          0.770741
         75.7992           168.396          0.708861
         75.8187           169.062          0.938632
         75.8382           168.751          0.699988
         75.8577           166.322          0.855577
         75.8772           170.287          0.707204
         75.8967           169.245          0.883207
         75.9162           169.136          0.614229
         75.9357           169.132          0.680591
         75.9551           168.679          0.851735
         75.9746           166.272          0.697827
         75.9941           167.955          0.927397
         76.0136           166.571          0.622729
         76.0331           169.706          0.681023
         76.0526           167.148          0.886916
         76.0721           166.246          0.879376
         76.0916           170.298          0.890962
         76.1111           168.020          0.830566
         76.1306           167.861          0.831861
         76.1500           166.219          0.748662
         76.1695           168.029          0.642892
         76.1890           171.305          0.621486
         76.2085           166.863          0.621440
         76.2280           170.596          0.714987
         76.2475           171.080          0.446309
         76.2669           169.124          0.790430
         76.2864           170.297          0.428343
         76.3059           168.307          0.893083
         76.3254           166.896          0.586035
         76.3448           171.057          0.645358
         76.3643           170.930          0.508128
         76.3838           170.236          0.691608
         76.4033           171.296          0.554600
         76.4227           171.702          0.802201
         76.4422           169.533          0.642730
         76.4617           169.546          0.886863
         76.4812           169.772          0.741714
         76.5006           170.639           1.13789
         76.5201           170.075          0.558062
         76.5396           172.041          0.907954
         76.5590           168.804          0.627293
         76.5785           170.216          0.737499
         76.5979           171.267          0.664620
         76.6174           171.314          0.965286
         76.6369           173.045           1.22978
         76.6563           169.290          0.875260
         76.6758           171.013          0.756226
         76.6952           171.428          0.787215
         76.7147           173.480          0.608575
         76.7342           173.044          0.825370
         76.7536           172.789           1.16314
         76.7731           170.158           1.11021
         76.7925           172.315           1.30015
         76.8120           169.873          0.817187
         76.8314           171.746          0.786297
         76.8509           170.987           1.08580
         76.8703           169.622          0.860468
         76.8898           170.158          0.804082
         76.9092           169.848          0.853307
         76.9287           171.585           1.00368
         76.9481           172.148           1.25052
         76.9676           176.685           1.11978
         76.9870           173.678           1.01953
         77.0064           174.423          0.671324
         77.0259           175.860           1.16393
         77.0453           180.500          0.924766
         77.0648           181.286           1.09701
         77.0842           176.348          0.740769
         77.1036           175.185          0.894722
         77.1231           174.890          0.647888
         77.1425           178.158          0.730238
         77.1619           173.474          0.511026
         77.1814           175.813           1.04191
         77.2008           173.438          0.496333
         77.2202           174.558          0.864722
         77.2397           175.832          0.555767
         77.2591           174.937           1.09209
         77.2785           174.834          0.624383
         77.2980           177.248           1.03729
         77.3174           174.058          0.743419
         77.3368           175.564           1.08718
         77.3562           177.219          0.794933
         77.3756           175.794           1.15856
         77.3951           177.073          0.717406
         77.4145           176.285           1.37537
         77.4339           178.093          0.686278
         77.4533           175.292          0.986535
         77.4727           176.016          0.807808
         77.4922           176.395          0.848539
         77.5116           173.093          0.636983
         77.5310           173.111          0.842083
         77.5504           173.707          0.623283
         77.5698           174.187           1.17897
         77.5892           175.703          0.801712
         77.6086           175.534           1.01006
         77.6280           178.613          0.718032
         77.6474           176.263           1.09469
         77.6668           176.029          0.700074
         77.6863           177.618          0.887290
         77.7057           173.883          0.962041
         77.7251           175.504          0.790049
         77.7445           175.589          0.974167
         77.7639           176.383          0.778531
         77.7833           176.538          0.809423
         77.8027           175.670           1.10170
         77.8221           176.055          0.769363
         77.8414           174.903          0.985616
         77.8608           177.018           1.04219
         77.8802           175.954          0.775516
         77.8996           177.164          0.781524
         77.9190           176.266          0.666287
         77.9384           175.197           1.08399
         77.9578           177.550          0.701131
         77.9772           174.751           1.36269
         77.9966           177.098           1.05615
         78.0160           176.617           1.23879
         78.0353           177.730          0.892706
         78.0547           178.750          0.955128
         78.0741           176.708          0.704662
         78.0935           178.128           1.06130
         78.1129           179.088          0.735304
         78.1322           180.410          0.966044
         78.1516           176.016          0.704448
         78.1710           178.407          0.768824
         78.1904           177.612           1.09701
         78.2097           178.996          0.924214
         78.2291           177.519          0.794264
         78.2485           179.213          0.912592
         78.2679           179.875          0.803015
         78.2872           178.145          0.691475
         78.3066           175.640          0.794348
         78.3260           179.655           1.06307
         78.3453           178.097          0.813706
         78.3647           180.493          0.869955
         78.3841           175.808          0.819988
         78.4034           177.475          0.745647
         78.4228           182.367          0.695474
         78.4421           180.457          0.750456
         78.4615           182.488          0.883185
         78.4809           180.232          0.599898
         78.5002           182.259          0.653840
         78.5196           180.335          0.767520
         78.5389           180.840          0.419056
         78.5583           177.982           1.04495
         78.5776           181.916          0.394198
         78.5970           181.502          0.865008
         78.6163           180.877          0.466818
         78.6357           180.407          0.865177
         78.6550           181.277          0.494729
         78.6744           183.369          0.765635
         78.6937           183.203          0.407420
         78.7130           182.682          0.838681
         78.7324           190.453          0.306572
         78.7517           187.438          0.777978
         78.7711           185.386          0.305408
         78.7904           186.888          0.608301
         78.8097           181.790          0.444639
         78.8291           185.822          0.425393
         78.8484           182.720          0.392739
         78.8677           183.985          0.586273
         78.8871           181.959          0.512918
         78.9064           180.345          0.591779
         78.9257           184.594          0.492340
         78.9451           182.213          0.524940
         78.9644           182.293          0.439871
         78.9837           182.252          0.521724
         79.0030           180.190          0.404616
         79.0224           181.004          0.470750
         79.0417           182.119          0.374831
         79.0610           184.834          0.685355
         79.0803           183.201          0.403521
         79.0996           187.194          0.425770
         79.1189           191.640          0.362042
         79.1383           186.755          0.502205
         79.1576           185.729          0.471995
         79.1769           190.542          0.588094
         79.1962           188.526          0.364203
         79.2155           183.832          0.631890
         79.2348           183.334          0.423643
         79.2541           179.676          0.677357
         79.2734           184.274          0.560481
         79.2927           183.925          0.815982
         79.3120           180.662          0.554315
         79.3313           187.412          0.543602
         79.3506           192.378          0.612097
         79.3699           188.819          0.705029
         79.3892           185.327          0.471897
         79.4085           181.486          0.656062
         79.4278           183.379          0.435726
         79.4471           179.037          0.688906
         79.4664           178.985          0.661691
         79.4857           182.736          0.671290
         79.5050           184.478          0.609633
         79.5243           180.282          0.938105
         79.5436           182.426          0.578900
         79.5628           179.228          0.904052
         79.5821           178.646          0.358331
         79.6014           178.998          0.784609
         79.6207           180.873          0.437681
         79.6400           181.110          0.885997
         79.6593           180.931          0.563140
         79.6785           180.768          0.995084
         79.6978           182.129          0.580006
         79.7171           177.765          0.689740
         79.7364           182.075          0.456650
         79.7556           181.138           1.03576
         79.7749           185.499          0.378858
         79.7942           181.873          0.520348
         79.8134           185.989          0.785017
         79.8327           182.160          0.699363
         79.8520           183.441          0.398505
         79.8712           181.695          0.820236
         79.8905           184.058          0.533625
         79.9098           181.467          0.878878
         79.9290           182.658          0.670702
         79.9483           184.211          0.757006
         79.9675           184.469          0.535542
         79.9868           182.385          0.899297
         80.0060           184.278          0.480128
         80.0253           182.425          0.829610
         80.0445           187.467          0.804539
         80.0638           184.438          0.749846
         80.0830           184.183          0.611875
         80.1023           183.949          0.653299
         80.1215           187.727          0.471259
         80.1408           185.485          0.738540
         80.1600           185.123          0.572257
         80.1793           186.765          0.779903
         80.1985           187.701          0.396331
         80.2177           185.361          0.729291
         80.2370           188.513          0.578433
         80.2562           188.074          0.728245
         80.2754           188.282          0.333341
         80.2947           188.206          0.623213
         80.3139           190.981          0.462747
         80.3331           189.716          0.697209
         80.3524           189.452          0.551469
         80.3716           190.080          0.770020
         80.3908           187.643          0.449152
         80.4100           189.836          0.729509
         80.4293           190.931          0.426986
         80.4485           189.055          0.575082
         80.4677           188.930          0.447732
         80.4869           190.377          0.543956
         80.5061           192.024          0.503007
         80.5254           189.432          0.585615
         80.5446           188.716          0.432792
         80.5638           190.194          0.657524
         80.5830           190.972          0.662721
         80.6022           190.284          0.509244
         80.6214           190.137          0.525142
         80.6406           192.434          0.597598
         80.6598           189.546          0.509171
         80.6790           188.625          0.570850
         80.6982           189.916          0.583035
         80.7174           192.180          0.659928
         80.7366           188.101          0.604785
         80.7558           190.637          0.583430
         80.7750           191.565          0.617671
         80.7942           187.290          0.599662
         80.8134           191.328          0.520716
         80.8326           190.747          0.817637
         80.8518           189.103          0.344210
         80.8710           187.505          0.679029
         80.8902           190.102          0.359917
         80.9094           191.216          0.582059
         80.9285           187.066          0.340449
         80.9477           189.126          0.726396
         80.9669           190.119          0.316706
         80.9861           192.407          0.712716
         81.0053           191.753          0.377641
         81.0244           188.993          0.939431
         81.0436           192.101          0.418074
         81.0628           189.641          0.740656
         81.0820           184.881          0.467972
         81.1011           190.246          0.558161
         81.1203           188.056          0.396777
         81.1395           190.973          0.601833
         81.1586           188.873          0.447158
         81.1778           190.333          0.501651
         81.1969           189.435          0.495156
         81.2161           188.333          0.566817
         81.2353           188.696          0.438799
         81.2544           190.383          0.489048
         81.2736           192.938          0.479763
         81.2927           191.012          0.561266
         81.3119           192.158          0.475503
         81.3310           191.322          0.566529
         81.3502           192.553          0.387443
         81.3693           188.398          0.606559
         81.3885           189.710          0.505137
         81.4076           189.714          0.548439
         81.4268           192.320          0.455944
         81.4459           192.486          0.533911
         81.4651           193.913          0.398586
         81.4842           193.434          0.610904
         81.5033           193.776          0.369093
         81.5225           192.022          0.625074
         81.5416           193.310          0.376371
         81.5607           189.991          0.797701
         81.5799           191.838          0.482155
         81.5990           196.142          0.626314
         81.6181           196.011          0.371395
         81.6372           191.537          0.593318
         81.6564           191.980          0.485587
         81.6755           194.543          0.492349
         81.6946           196.414          0.510540
         81.7137           193.767          0.509643
         81.7329           198.217          0.549720
         81.7520           198.388          0.471880
         81.7711           201.731          0.463577
         81.7902           204.810          0.556004
         81.8093           208.544          0.489759
         81.8284           207.020          0.496424
         81.8475           200.946          0.734030
         81.8666           198.868          0.499870
         81.8857           197.798          0.772564
         81.9048           200.086          0.378734
         81.9239           199.177          0.688745
         81.9430           200.072          0.323936
         81.9621           199.048          0.640249
         81.9812           202.054          0.470379
         82.0003           201.800          0.770030
         82.0194           203.787          0.330989
         82.0385           208.047          0.742311
         82.0576           204.586          0.271383
         82.0767           201.850          0.701359
         82.0958           200.098          0.314812
         82.1149           201.925          0.759198
         82.1339           201.298          0.430867
         82.1530           197.277          0.649527
         82.1721           199.792          0.432780
         82.1912           202.277          0.534545
         82.2103           199.590          0.478166
         82.2293           201.338          0.599962
         82.2484           197.237          0.627796
         82.2675           200.934          0.770133
         82.2866           196.768          0.568934
         82.3056           201.663          0.552660
         82.3247           202.789          0.497389
         82.3437           200.499          0.560501
         82.3628           203.486          0.391200
         82.3819           201.154          0.791912
         82.4009           199.869          0.400243
         82.4200           207.997          0.750199
         82.4390           199.376          0.357520
         82.4581           206.056          0.726127
         82.4772           201.536          0.658666
         82.4962           203.298          0.563184
         82.5153           204.160          0.441354
         82.5343           201.275          0.787821
         82.5533           202.286          0.733105
         82.5724           203.901          0.666527
         82.5914           201.923          0.473359
         82.6105           203.386          0.604239
         82.6295           204.643          0.516356
         82.6485           203.813          0.827729
         82.6676           201.734          0.552874
         82.6866           203.550          0.578443
         82.7056           199.653          0.535053
         82.7247           198.699          0.698454
         82.7437           202.941          0.353787
         82.7627           200.009          0.639402
         82.7818           203.593          0.711921
         82.8008           200.826          0.650313
         82.8198           203.293          0.760764
         82.8388           201.845          0.410434
         82.8578           200.235          0.755784
         82.8768           201.512          0.472182
         82.8959           201.298          0.372404
         82.9149           202.294          0.654937
         82.9339           201.340          0.652939
         82.9529           197.765          0.463201
         82.9719           201.525          0.668374
         82.9909           200.072          0.474710
         83.0099           203.715          0.762468
         83.0289           204.813          0.441926
         83.0479           200.650          0.632775
         83.0669           204.837          0.513638
         83.0859           200.301          0.566958
         83.1049           203.115          0.529143
         83.1239           200.710          0.539688
         83.1429           203.588          0.434259
         83.1619           204.201          0.588897
         83.1808           205.685          0.454574
         83.1998           206.715          0.479223
         83.2188           206.093          0.376195
         83.2378           205.337          0.416021
         83.2568           205.985          0.330615
         83.2758           206.927          0.562662
         83.2947           206.702          0.245249
         83.3137           205.283          0.532983
         83.3327           205.204          0.484216
         83.3516           205.763          0.457180
         83.3706           206.218          0.432839
         83.3896           204.663          0.422032
         83.4085           207.200          0.423347
         83.4275           203.637          0.473343
         83.4465           202.655          0.354706
         83.4654           204.973          0.436802
         83.4844           211.011          0.303842
         83.5033           203.150          0.320038
         83.5223           205.101          0.322802
         83.5412           208.614          0.430413
         83.5602           209.796          0.407647
         83.5791           210.343          0.380933
         83.5981           210.303          0.364229
         83.6170           208.689          0.307884
         83.6360           209.015          0.456974
         83.6549           211.502          0.395189
         83.6738           205.363          0.400193
         83.6928           203.397          0.310963
         83.7117           203.707          0.577001
         83.7306           205.600          0.301802
         83.7496           207.855          0.539227
         83.7685           206.208          0.466527
         83.7874           204.645          0.560895
         83.8064           209.675          0.273637
         83.8253           207.126          0.544389
         83.8442           208.124          0.431062
         83.8631           204.104          0.574738
         83.8820           210.155          0.337469
         83.9010           207.525          0.579473
         83.9199           205.801          0.299626
         83.9388           205.503          0.470176
         83.9577           207.878          0.418209
         83.9766           209.390          0.504944
         83.9955           205.275          0.271332
         84.0144           208.398          0.340643
         84.0333           208.118          0.543953
         84.0522           205.431          0.427704
         84.0711           207.918          0.349853
         84.0900           206.171          0.491725
         84.1089           207.776          0.297312
         84.1278           207.110          0.546134
         84.1467           212.092          0.294230
         84.1656           207.700          0.453218
         84.1844           206.282          0.358526
         84.2033           208.767          0.505740
         84.2222           208.076          0.572947
         84.2411           209.625          0.306541
         84.2600           210.568          0.557931
         84.2788           207.350          0.450077
         84.2977           212.288          0.405557
         84.3166           209.365          0.426279
         84.3355           210.737          0.611930
         84.3543           213.979          0.313324
         84.3732           215.098          0.557552
         84.3921           222.780          0.297223
         84.4109           223.800          0.530856
         84.4298           218.498          0.393017
         84.4486           209.703          0.434916
         84.4675           208.839          0.428858
         84.4863           208.390          0.556191
         84.5052           210.625          0.509527
         84.5240           210.911          0.678240
         84.5429           210.887          0.664736
         84.5617           212.894          0.498677
         84.5806           215.462          0.293457
         84.5994           216.139          0.376398
         84.6183           215.552          0.319842
         84.6371           212.567          0.404813
         84.6559           212.893          0.345619
         84.6748           212.003          0.586007
         84.6936           209.576          0.398355
         84.7124           208.102          0.498012
         84.7313           210.473          0.307893
         84.7501           212.326          0.406589
         84.7689           209.262          0.463255
         84.7877           212.127          0.396599
         84.8065           212.586          0.450546
         84.8254           215.414          0.381365
         84.8442           210.185          0.306566
         84.8630           214.003          0.400349
         84.8818           209.723          0.583624
         84.9006           214.132          0.298232
         84.9194           211.914          0.405916
         84.9382           213.722          0.264757
         84.9570           216.021          0.537516
         84.9758           216.781          0.350280
         84.9946           215.371          0.427612
         85.0134           216.537          0.287356
         85.0322           216.656          0.401313
         85.0510           214.241          0.425054
         85.0698           215.209          0.377216
         85.0886           215.902          0.352974
         85.1074           214.437          0.442837
         85.1261           212.084          0.366395
         85.1449           214.052          0.364690
         85.1637           215.995          0.334336
         85.1825           213.739          0.527403
         85.2013           212.343          0.414824
         85.2200           215.929          0.443814
         85.2388           216.569          0.250076
         85.2576           214.921          0.485831
         85.2763           215.525          0.374257
         85.2951           217.524          0.325834
         85.3139           213.011          0.407968
         85.3326           215.528          0.372255
         85.3514           217.950          0.476336
         85.3701           214.302          0.302325
         85.3889           216.851          0.509800
         85.4076           219.637          0.236398
         85.4264           215.317          0.478920
         85.4451           218.341          0.439838
         85.4639           211.293          0.524434
         85.4826           217.197          0.405959
         85.5014           212.257          0.467503
         85.5201           213.217          0.306817
         85.5388           211.177          0.462221
         85.5576           213.586          0.295868
         85.5763           208.951          0.501891
         85.5950           213.463          0.301189
         85.6138           209.950          0.414709
         85.6325           212.480          0.376789
         85.6512           210.924          0.430130
         85.6699           206.669          0.310191
         85.6887           213.605          0.380681
         85.7074           208.570          0.555399
         85.7261           211.508          0.232165
         85.7448           213.681          0.399819
         85.7635           212.534          0.326333
         85.7822           212.014          0.403954
         85.8009           209.336          0.262349
         85.8196           210.586          0.552647
         85.8383           215.373          0.295149
         85.8570           206.638          0.524313
         85.8757           212.567          0.304318
         85.8944           209.855          0.450779
         85.9131           216.346          0.207077
         85.9318           207.400          0.542857
         85.9505           212.911          0.335644
         85.9692           210.169          0.429114
         85.9879           213.951          0.273698
         86.0065           214.932          0.412144
         86.0252           215.461          0.334509
         86.0439           215.127          0.502992
         86.0626           215.566          0.335465
         86.0812           215.170          0.422234
         86.0999           213.091          0.357123
         86.1186           216.569          0.427286
         86.1372           213.111          0.337645
         86.1559           216.848          0.290504
         86.1746           218.291          0.492270
         86.1932           219.110          0.346194
         86.2119           218.537          0.513516
         86.2305           213.714          0.270196
         86.2492           219.722          0.371153
         86.2678           215.306          0.244118
         86.2865           218.810          0.418155
         86.3051           217.142          0.320288
         86.3238           218.812          0.410813
         86.3424           217.524          0.386988
         86.3610           216.234          0.497929
         86.3797           216.291          0.396389
         86.3983           214.998          0.438239
         86.4169           219.059          0.324290
         86.4356           213.852          0.373999
         86.4542           215.317          0.317414
         86.4728           216.514          0.366551
         86.4914           217.672          0.428698
         86.5101           215.139          0.413858
         86.5287           222.620          0.383438
         86.5473           222.963          0.357710
         86.5659           219.606          0.500547
         86.5845           220.122          0.286479
         86.6031           219.474          0.359039
         86.6217           220.948          0.313623
         86.6403           218.815          0.429440
         86.6589           218.872          0.357324
         86.6775           221.032          0.549608
         86.6961           221.398          0.250489
         86.7147           216.381          0.403462
         86.7333           223.450          0.365844
         86.7519           215.445          0.379993
         86.7705           217.362          0.379319
         86.7891           218.732          0.369679
         86.8076           217.437          0.313583
         86.8262           217.570          0.462754
         86.8448           216.079          0.402344
         86.8634           220.953          0.372749
         86.8819           217.134          0.551650
         86.9005           221.177          0.412521
         86.9191           220.963          0.441671
         86.9377           218.610          0.359625
         86.9562           214.367          0.379646
         86.9748           218.852          0.282079
         86.9933           215.720          0.578914
         87.0119           221.131          0.246775
         87.0304           220.314          0.454367
         87.0490           222.947          0.307966
         87.0675           216.758          0.439094
         87.0861           220.815          0.364471
         87.1046           218.562          0.526300
         87.1232           220.190          0.312581
         87.1417           220.554          0.361993
         87.1602           229.103          0.289262
         87.1788           231.145          0.479878
         87.1973           228.399          0.359734
         87.2158           226.136          0.469640
         87.2344           222.293          0.637497
         87.2529           222.144          0.342553
         87.2714           224.187          0.679989
         87.2899           227.958          0.268586
         87.3084           222.454          0.431844
         87.3270           226.723          0.365431
         87.3455           223.658          0.642942
         87.3640           226.346          0.478503
         87.3825           221.820          0.647941
         87.4010           223.782          0.309062
         87.4195           225.389          0.623276
         87.4380           226.194          0.415472
         87.4565           222.732          0.540036
         87.4750           225.427          0.389702
         87.4935           221.562          0.480205
         87.5120           227.957          0.336228
         87.5304           222.362          0.604185
         87.5489           221.842          0.446546
         87.5674           222.808          0.482049
         87.5859           222.434          0.575487
         87.6044           225.345          0.212763
         87.6228           224.260          0.573080
         87.6413           223.176          0.478480
         87.6598           223.309          0.504360
         87.6782           224.875          0.208655
         87.6967           225.451          0.621504
         87.7152           220.943          0.362102
         87.7336           225.413          0.617001
         87.7521           225.557          0.271265
         87.7705           224.590          0.459317
         87.7890           224.381          0.290738
         87.8074           225.313          0.423927
         87.8259           227.683          0.364437
         87.8443           224.699          0.631568
         87.8628           225.840          0.454082
         87.8812           224.730          0.251998
         87.8997           226.928          0.458581
         87.9181           226.181          0.313992
         87.9365           224.565          0.407869
         87.9549           226.212          0.290014
         87.9734           224.770          0.308240
         87.9918           226.170          0.229171
         88.0102           225.985          0.470900
         88.0286           226.729          0.317935
         88.0471           228.009          0.372389
         88.0655           233.765          0.287127
         88.0839           225.901          0.380650
         88.1023           229.838          0.292835
         88.1207           227.408          0.377378
         88.1391           228.876          0.378144
         88.1575           230.672          0.526792
         88.1759           231.654          0.420371
         88.1943           231.613          0.263346
         88.2127           231.088          0.374677
         88.2311           228.351          0.387247
         88.2495           224.846          0.383208
         88.2678           229.345          0.353360
         88.2862           226.926          0.628904
         88.3046           231.163          0.330537
         88.3230           226.371          0.523339
         88.3414           228.394          0.329391
         88.3597           226.641          0.504780
         88.3781           226.367          0.272929
         88.3965           227.152          0.497808
         88.4148           230.059          0.308199
         88.4332           227.306          0.665277
         88.4515           225.375          0.529909
         88.4699           225.252          0.424428
         88.4883           225.543          0.395049
         88.5066           225.557          0.450760
         88.5250           225.696          0.511819
         88.5433           224.024          0.369171
         88.5616           225.036          0.561393
         88.5800           225.758          0.319006
         88.5983           227.519          0.634269
         88.6166           227.820          0.332938
         88.6350           226.361          0.531448
         88.6533           225.752          0.313523
         88.6716           228.209          0.394102
         88.6900           226.895          0.319125
         88.7083           224.593          0.500447
         88.7266           230.360          0.466810
         88.7449           226.684          0.390962
         88.7632           227.515          0.500647
         88.7815           224.843          0.348012
         88.7998           228.520          0.530158
         88.8182           223.551          0.361974
         88.8365           226.952          0.665902
         88.8548           224.871          0.327341
         88.8731           229.970          0.561957
         88.8913           225.863          0.522034
         88.9096           231.225          0.555395
         88.9279           232.172          0.378652
         88.9462           231.672          0.656970
         88.9645           230.844          0.353186
         88.9828           231.517          0.566889
         89.0011           231.100          0.428566
         89.0193           234.009          0.654679
         89.0376           231.596          0.539251
         89.0559           232.973          0.465272
         89.0741           231.019          0.858196
         89.0924           232.315          0.426545
         89.1107           232.841          0.613149
         89.1289           235.423          0.362933
         89.1472           232.012          0.728137
         89.1654           233.952          0.386761
         89.1837           236.289          0.635306
         89.2019           235.212          0.522732
         89.2202           232.820          0.677309
         89.2384           233.268          0.622215
         89.2567           229.166          0.617859
         89.2749           231.506          0.556235
         89.2931           230.459          0.624360
         89.3114           230.719          0.653498
         89.3296           227.880          0.369182
         89.3478           230.099          0.614172
         89.3660           229.129          0.589132
         89.3843           230.040          0.516261
         89.4025           231.402          0.368115
         89.4207           232.272          0.746796
         89.4389           237.095          0.326114
         89.4571           234.941          0.567816
         89.4753           232.776          0.307958
         89.4935           234.569          0.538841
         89.5117           237.626          0.317810
         89.5299           229.811          0.642844
         89.5481           233.724          0.496580
         89.5663           231.015          0.328443
         89.5845           233.603          0.530376
         89.6027           228.236          0.327717
         89.6209           231.060          0.485010
         89.6390           229.327          0.296051
         89.6572           230.537          0.608068
         89.6754           229.944          0.304040
         89.6936           233.899          0.390305
         89.7117           236.917          0.403152
         89.7299           233.501          0.576942
         89.7481           228.516          0.309276
         89.7662           234.404          0.422401
         89.7844           233.435          0.436146
         89.8025           232.526          0.335089
         89.8207           229.694          0.458066
         89.8388           230.401          0.224948
         89.8570           233.335          0.462428
         89.8751           233.861          0.342184
         89.8933           233.835          0.461105
         89.9114           232.152          0.352854
         89.9295           233.762          0.393479
         89.9477           230.977          0.277788
         89.9658           235.374          0.461225
         89.9839           232.414          0.469671
         90.0020           232.909          0.403110
         90.0202           233.838          0.346413
         90.0383           232.325          0.484929
         90.0564           232.145          0.492366
         90.0745           227.215          0.333586
         90.0926           229.398          0.329189
         90.1107           234.887          0.378161
         90.1288           238.216          0.408769
         90.1469           247.551          0.279345
         90.1650           247.268          0.326503
         90.1831           236.251          0.388443
         90.2012           232.765          0.413386
         90.2193           230.856          0.346023
         90.2374           233.612          0.413093
         90.2555           232.161          0.439909
         90.2735           233.864          0.295730
         90.2916           230.839          0.329019
         90.3097           236.793          0.339090
         90.3278           229.393          0.550872
         90.3458           234.754          0.340961
         90.3639           232.858          0.348982
         90.3820           231.733          0.317521
         90.4000           233.494          0.446078
         90.4181           234.233          0.312040
         90.4361           231.965          0.431982
         90.4542           229.758          0.249985
         90.4722           228.237          0.317994
         90.4903           233.124          0.313621
         90.5083           234.159          0.382516
         90.5263           235.823          0.417649
         90.5444           229.055          0.284038
         90.5624           232.405          0.441278
         90.5804           234.550          0.238050
         90.5985           232.485          0.412342
         90.6165           232.233          0.247450
         90.6345           232.020          0.292892
         90.6525           234.918          0.308765
         90.6705           233.470          0.382597
         90.6885           234.836          0.203929
         90.7065           234.364          0.372154
         90.7246           235.179          0.326248
         90.7426           237.290          0.145298
         90.7606           235.816          0.250535
         90.7785           237.848          0.314691
         90.7965           234.868          0.345363
         90.8145           228.861          0.287572
         90.8325           236.704          0.355185
         90.8505           236.282          0.301134
         90.8685           232.596          0.328853
         90.8865           232.211          0.282917
         90.9044           235.698          0.300302
         90.9224           236.026          0.246443
         90.9404           239.125          0.327723
         90.9583           234.229          0.243911
         90.9763           237.366          0.209245
         90.9943           233.452          0.232188
         91.0122           234.641          0.208062
         91.0302           237.269          0.305708
         91.0481           239.380          0.193808
         91.0661           236.609          0.326715
         91.0840           236.508          0.241627
         91.1019           236.210          0.316919
         91.1199           235.438          0.220520
         91.1378           238.516          0.275704
         91.1557           237.960          0.378160
         91.1737           237.034          0.258727
         91.1916           239.749          0.361700
         91.2095           238.838          0.310418
         91.2274           238.912          0.322158
         91.2453           239.584          0.234226
         91.2633           237.528          0.276220
         91.2812           240.812          0.220104
         91.2991           240.033          0.308034
         91.3170           241.996          0.168457
         91.3349           238.992          0.295674
         91.3528           240.557          0.270898
         91.3707           237.819          0.283939
         91.3886           240.799          0.356498
         91.4064           237.215          0.214594
         91.4243           237.012          0.309590
         91.4422           241.842          0.259858
         91.4601           240.605          0.392355
         91.4780           239.921          0.350287
         91.4958           238.795          0.411735
         91.5137           239.000          0.271749
         91.5316           241.716          0.297162
         91.5494           242.811          0.233975
         91.5673           239.601          0.485087
         91.5851           239.604          0.340351
         91.6030           239.628          0.367131
         91.6208           239.911          0.399117
         91.6387           240.200          0.226751
         91.6565           237.006          0.430315
         91.6744           240.311          0.214086
         91.6922           239.717          0.403584
         91.7100           240.872          0.259746
         91.7279           240.335          0.358393
         91.7457           236.416          0.305586
         91.7635           238.737          0.463542
         91.7813           237.723          0.341399
         91.7992           238.063          0.263811
         91.8170           240.316          0.453980
         91.8348           236.211          0.340208
         91.8526           241.040          0.440306
         91.8704           234.065          0.287482
         91.8882           237.046          0.374529
         91.9060           230.817          0.363137
         91.9238           237.455          0.278557
         91.9416           239.447          0.355195
         91.9594           237.119          0.410478
         91.9771           236.450          0.474144
         91.9949           240.407          0.290727
         92.0127           237.879          0.398699
         92.0305           237.045          0.350940
         92.0482           235.870          0.423112
         92.0660           235.916          0.262986
         92.0838           234.952          0.373068
         92.1015           232.670          0.227321
         92.1193           238.166          0.264362
         92.1371           239.456          0.315495
         92.1548           235.732          0.344077
         92.1726           234.262          0.372669
         92.1903           235.727          0.269310
         92.2080           239.778          0.369895
         92.2258           236.176          0.248682
         92.2435           239.848          0.369168
         92.2613           237.986          0.252145
         92.2790           242.288          0.385298
         92.2967           236.310          0.295789
         92.3144           240.976          0.283009
         92.3321           239.817          0.309381
         92.3499           243.102          0.612235
         92.3676           244.324          0.391577
         92.3853           243.185          0.192582
         92.4030           246.629          0.274890
         92.4207           243.613          0.375648
         92.4384           243.408          0.406976
         92.4561           245.935          0.277814
         92.4738           243.607          0.357332
         92.4915           240.055          0.247218
         92.5092           243.419          0.258609
         92.5268           242.612          0.285854
         92.5445           244.405          0.414970
         92.5622           242.827          0.315743
         92.5799           239.453          0.246531
         92.5975           242.849          0.388589
         92.6152           243.286          0.245979
         92.6329           242.975          0.378681
         92.6505           244.212          0.211622
         92.6682           243.528          0.452497
         92.6858           237.411          0.164499
         92.7035           240.429          0.351117
         92.7211           245.804          0.355515
         92.7388           240.919          0.381513
         92.7564           241.664          0.264905
         92.7740           240.561          0.340677
         92.7917           240.992          0.359602
         92.8093           238.947          0.224578
         92.8269           241.724          0.317548
         92.8445           244.833          0.248335
         92.8622           237.644          0.251990
         92.8798           247.509          0.220092
         92.8974           237.588          0.338465
         92.9150           244.747          0.367962
         92.9326           235.483          0.232531
         92.9502           240.426          0.391725
         92.9678           235.392          0.321740
         92.9854           240.883          0.300975
         93.0030           243.044          0.310869
         93.0206           244.261          0.369952
         93.0381           238.706          0.281103
         93.0557           247.212          0.439282
         93.0733           240.975          0.423814
         93.0909           241.448          0.390254
         93.1084           246.505          0.374022
         93.1260           241.470          0.335230
         93.1436           241.468          0.378822
         93.1611           241.270          0.361321
         93.1787           244.376          0.443603
         93.1962           241.560          0.361619
         93.2138           240.070          0.397290
         93.2313           239.717          0.328411
         93.2489           240.777          0.281136
         93.2664           243.491          0.342404
         93.2839           241.639          0.272743
         93.3015           243.915          0.302061
         93.3190           245.577          0.239100
         93.3365           260.835          0.259461
         93.3541           260.056          0.319494
         93.3716           251.555          0.298988
         93.3891           245.696          0.370970
         93.4066           243.235          0.316433
         93.4241           243.472          0.459632
         93.4416           244.937          0.418186
         93.4591           244.746          0.383026
         93.4766           239.848          0.346723
         93.4941           245.018          0.260506
         93.5116           244.127          0.316196
         93.5291           244.765          0.409562
         93.5465           243.460          0.314341
         93.5640           243.319          0.394318
         93.5815           243.784          0.334142
         93.5990           249.182          0.350622
         93.6164           251.095          0.388618
         93.6339           239.550          0.330628
         93.6514           246.960          0.435589
         93.6688           242.752          0.479144
         93.6863           249.464          0.313858
         93.7037           246.464          0.370565
         93.7212           244.922          0.342532
         93.7386           247.695          0.194482
         93.7561           243.632          0.447898
         93.7735           247.184          0.464518
         93.7909           239.266          0.267307
         93.8084           241.607          0.427412
         93.8258           242.422          0.271079
         93.8432           240.844          0.300878
         93.8606           248.041          0.219191
         93.8780           240.731          0.303545
         93.8954           240.429          0.363873
         93.9128           241.322          0.365518
         93.9303           242.914          0.362471
         93.9477           238.577          0.411647
         93.9650           244.216          0.328377
         93.9824           239.872          0.264038
         93.9998           238.399          0.341769
         94.0172           238.796          0.268631
         94.0346           241.462          0.385115
         94.0520           238.215          0.246262
         94.0693           240.617          0.255276
         94.0867           239.969          0.296733
         94.1041           237.151          0.245512
         94.1214           237.470          0.265394
         94.1388           234.531          0.241532
         94.1562           234.981          0.316481
         94.1735           233.255          0.222337
         94.1909           238.494          0.271198
         94.2082           239.229          0.175617
         94.2255           237.472          0.312658
         94.2429           236.344          0.206376
         94.2602           239.434          0.322891
         94.2776           243.156          0.273461
         94.2949           235.615          0.231621
         94.3122           244.100          0.226973
         94.3295           237.703          0.250882
         94.3468           239.180          0.304009
         94.3641           236.423          0.242536
         94.3815           239.388          0.331010
         94.3988           236.082          0.218850
         94.4161           236.955          0.237108
         94.4334           241.620          0.267447
         94.4506           237.799          0.248494
         94.4679           242.210          0.328031
         94.4852           240.160          0.206889
         94.5025           240.236          0.335357
         94.5198           241.290          0.329616
         94.5371           238.125          0.285890
         94.5543           237.329          0.260791
         94.5716           237.426          0.382987
         94.5889           239.570          0.334868
         94.6061           238.860          0.309782
         94.6234           235.696          0.358896
         94.6406           241.932          0.235486
         94.6579           240.838          0.346030
         94.6751           235.649          0.206469
         94.6924           237.071          0.351705
         94.7096           236.888          0.199239
         94.7268           235.492          0.343750
         94.7441           239.353          0.322428
         94.7613           241.021          0.291498
         94.7785           246.065          0.282883
         94.7957           235.228          0.192997
         94.8129           244.015          0.269983
         94.8302           243.417          0.364273
         94.8474           235.735          0.303257
         94.8646           240.224          0.297532
         94.8818           235.457          0.218008
         94.8990           242.005          0.249751
         94.9161           238.087          0.273887
         94.9333           247.087          0.212722
         94.9505           239.478          0.243595
         94.9677           241.559          0.229430
         94.9849           239.883          0.235801
         95.0020           246.028          0.275595
         95.0192           248.518          0.231263
         95.0364           245.795          0.260597
         103.039           271.675           1.06025
         103.094           271.893           1.32776
         103.149           270.692          0.700287
         103.205           274.350           1.27893
         103.260           274.990           1.21410
         103.315           277.934           1.73861
         103.370           279.156           1.97537
         103.426           277.955           2.05030
         103.481           278.830           1.41948
         103.536           279.778           2.16802
         103.592           278.708           2.03294
         103.647           279.569           1.92259
         103.702           280.326           2.06727
         103.758           278.919           2.33906
         103.813           278.933           1.56289
         103.868           281.457           2.85730
         103.924           280.794           2.34800
         103.979           279.927           2.34952
         104.035           282.115           2.29275
         104.090           281.734           2.58276
         104.146           284.434           2.35399
         104.201           284.452           2.32667
         104.257           282.514           2.01231
         104.312           283.645           1.68355
         104.368           288.562           1.64652
         104.423           294.592           1.56270
         104.479           299.384           1.67998
         104.534           292.188           1.46924
         104.590           287.012           1.85033
         104.645           287.691           2.25260
         104.701           287.483           1.45652
         104.756           286.338           1.88797
         104.812           286.703           2.15963
         104.868           288.050           1.15088
         104.923           288.296           1.61365
         104.979           287.526           1.72689
         105.035           289.862           1.42163
         105.090           289.220           1.02500
         105.146           286.250           1.50362
         105.202           287.163           1.27447
         105.257           288.527           1.11458
         105.313           287.447           1.34897
         105.369           287.256           1.25289
         105.425           285.938           1.44931
         105.480           287.853           1.17182
         105.536           286.812           1.59018
         105.592           291.087          0.876812
         105.648           289.644           1.47153
         105.704           288.533           1.20097
         105.759           290.336           1.19764
         105.815           290.555           1.01765
         105.871           286.279           1.70657
         105.927           287.620          0.905688
         105.983           288.858           1.53785
         106.039           288.384           1.39067
         106.095           288.944           1.71855
         106.151           291.888           1.03700
         106.207           288.669           1.50122
         106.262           291.297           1.14474
         106.318           291.948           1.09380
         106.374           292.684          0.962355
         106.430           290.478           1.19643
         106.486           290.197           2.09567
         106.542           292.619          0.858809
         106.598           290.119           1.33927
         106.654           290.379           1.17896
         106.710           290.441          0.843614
         106.767           293.656          0.957406
         106.823           294.891          0.947058
         106.879           293.621           1.18594
         106.935           292.034           1.40523
         106.991           291.259           1.08163
         107.047           292.840           1.06399
         107.103           296.206          0.986821
         107.159           295.167           1.03696
         107.215           297.248          0.988880
         107.272           295.260           1.11788
         107.328           295.108           1.20375
         107.384           296.466           1.05028
         107.440           297.023           1.03572
         107.496           297.687           1.23803
         107.553           297.772          0.844341
         107.609           297.056           1.00202
         107.665           296.314           1.24788
         107.721           298.049          0.898994
         107.778           300.274           1.07055
         107.834           300.518           1.13395
         107.890           299.851          0.951150
         107.947           300.917          0.983299
         108.003           299.398           1.11013
         108.059           302.852          0.941415
         108.116           305.660          0.990090
         108.172           302.085          0.976980
         108.229           299.627           1.16283
         108.285           298.247          0.856931
         108.341           301.979           1.00113
         108.398           300.151           1.10964
         108.454           299.375          0.961918
         108.511           301.800          0.923724
         108.567           301.843          0.983614
         108.624           301.059           1.06525
         108.680           305.042          0.781397
         108.737           312.619          0.670841
         108.793           316.865          0.755439
         108.850           305.116           1.00805
         108.906           301.518          0.931290
         108.963           301.888          0.752326
         109.019           302.348           1.10564
         109.076           298.294          0.834765
         109.132           301.866          0.970906
         109.189           302.091           1.09103
         109.246           302.127           1.31777
         109.302           299.060           1.25545
         109.359           300.277           1.36706
         109.416           301.018           1.26958
         109.472           298.857           1.06629
         109.529           298.711           1.12164
         109.586           301.086           1.17898
         109.642           299.523           1.22222
         109.699           299.071           1.34499
         109.756           302.374          0.975591
         109.813           300.818           1.34963
         109.869           303.045           1.45708
         109.926           302.528           1.10586
         109.983           302.378           1.20398
         110.040           301.620           1.48634
         110.096           304.494           1.34412
         110.153           302.901           1.44270
         110.210           303.159           1.38128
         110.267           305.980           1.70297
         110.324           305.389           1.41589
         110.381           307.015           1.44151
         110.437           305.735           1.65216
         110.494           305.841           1.68263
         110.551           305.059           1.67501
         110.608           305.870           1.42553
         110.665           305.608           1.70926
         110.722           305.449           1.41850
         110.779           306.132           1.86013
         110.836           307.160           1.52610
         110.893           307.038           1.68254
         110.950           307.235           1.50364
         111.007           306.996           1.53297
         111.064           308.796           1.46532
         111.121           309.036           1.26312
         111.178           307.282           1.51972
         111.235           306.932           1.67125
         111.292           308.305           1.27815
         111.349           309.604           1.25578
         111.406           307.256           1.30102
         111.463           307.661           1.62171
         111.521           306.402           1.38038
         111.578           306.901           1.92567
         111.635           306.467           1.37964
         111.692           308.217           1.22738
         111.749           308.142           1.38639
         111.806           305.892           1.22459
         111.863           305.504           1.42966
         111.921           304.916           1.48996
         111.978           306.951           1.61090
         112.035           307.063           1.51052
         112.092           309.248           1.42375
         112.150           309.767           1.19992
         112.207           311.888           1.20968
         112.264           309.745           1.41700
         112.321           311.220           1.38362
         112.379           309.964           1.15223
         112.436           312.201           1.26028
         112.493           311.411           1.17042
         112.551           314.875           1.07365
         112.608           311.217           1.27623
         112.665           312.624           1.24139
         112.723           313.108           1.18789
         112.780           314.208           1.15729
         112.837           315.345           1.20453
         112.895           316.663           1.02458
         112.952           316.849           1.05993
         113.010           317.908           1.07761
         113.067           316.767           1.23831
         113.125           318.899           1.15188
         113.182           315.791           1.10889
         113.240           318.736          0.901983
         113.297           317.389           1.02863
         113.355           320.303          0.915104
         113.412           327.928           1.09358
         113.470           344.857          0.816710
         113.527           341.695          0.732201
         113.585           332.546          0.869111
         113.642           320.812          0.878964
         113.700           320.668           1.00504
         113.757           317.375           1.01430
         113.815           319.151          0.955460
         113.873           317.688          0.908234
         113.930           318.031          0.820829
         113.988           318.408          0.822843
         114.046           314.981          0.868285
         114.103           315.531          0.936774
         114.161           315.816           1.00157
         114.219           317.473          0.889563
         114.276           318.586          0.901129
         114.334           317.708          0.890920
         114.392           315.655          0.887009
         114.449           316.204          0.872360
         114.507           314.415          0.925891
         114.565           314.172          0.939455
         114.623           317.173          0.900025
         114.680           316.225           1.01241
         114.738           314.747          0.832248
         114.796           314.326           1.08536
         114.854           315.014           1.07631
         114.912           313.887           1.08721
         114.970           316.257           1.19382
         115.027           316.430           1.15461
         115.085           314.549           1.20165
         115.143           315.940           1.04077
         115.201           315.617           1.43157
         115.259           316.364           1.21288
         115.317           318.663           1.48861
         115.375           317.057           1.20863
         115.433           316.381           1.15705
         115.491           314.774           1.28296
         115.549           316.196           1.50441
         115.607           316.261           1.51902
         115.665           318.044           1.48736
         115.723           316.857           1.55978
         115.781           318.856           1.46035
         115.839           319.518           1.58960
         115.897           317.251           1.79076
         115.955           315.499           2.06595
         116.013           317.378           2.06505
         116.071           315.112           1.50261
         116.129           316.786           1.80761
         116.187           317.924           2.02423
         116.245           319.005           2.17104
         116.303           316.348           2.50082
         116.361           317.225           1.92906
         116.419           317.234           1.75069
         116.477           315.636           2.17661
         116.536           317.320           2.24400
         116.594           317.278           2.08463
         116.652           316.276           2.23260
         116.710           319.162           2.21209
         116.768           316.729           1.93056
         116.827           316.612           2.25574
         116.885           317.719           2.34268
         116.943           317.997           2.05328
         117.001           316.302           2.88296
         117.060           319.628           2.35444
         117.118           317.176           2.32174
         117.176           317.006           2.35290
         117.234           317.911           2.37382
         117.293           317.051           2.18831
         117.351           314.510           2.51225
         117.409           316.743           2.17785
         117.468           316.460           2.62370
         117.526           315.714           2.21303
         117.584           316.957           1.48683
         117.643           315.520           2.00148
         117.701           315.059           1.58673
         117.760           317.052           2.00599
         117.818           318.050           1.93184
         117.876           318.961           1.61308
         117.935           320.618           1.60939
         117.993           318.905           1.58275
         118.052           317.481           1.52191
         118.110           317.057           1.53700
         118.169           316.339           1.37190
         118.227           315.450           1.39598
         118.286           317.697           1.22369
         118.344           317.259           1.38921
         118.403           317.977           1.49009
         118.461           320.375           1.17113
         118.520           328.953          0.957568
         118.578           344.436          0.940800
         118.637           335.719          0.933628
         118.696           319.873           1.21943
         118.754           318.373           1.09336
         118.813           318.651           1.00664
         118.871           318.040           1.07761
         118.930           317.422           1.05296
         118.989           319.784          0.978430
         119.047           319.528           1.12166
         119.106           319.991           1.05268
         119.165           324.508          0.869793
         119.223           325.574          0.890541
         119.282           325.014          0.949389
         119.341           325.507          0.939075
         119.400           327.700           1.04343
         119.458           328.667           1.10967
         119.517           325.862          0.925357
         119.576           321.266           1.03313
         119.635           320.948          0.818834
         119.693           322.402          0.989633
         119.752           320.363           1.12762
         119.811           319.883          0.854341
         119.870           320.605          0.963227
         119.929           320.053          0.981228
         119.987           322.898           1.04755
         120.046           322.131           1.01648
         120.105           320.335          0.989118
         120.164           320.797           1.04020
         120.223           318.728          0.925646
         120.282           319.590          0.874335
         120.341           319.898          0.908052
         120.400           324.286           1.09297
         120.458           321.054          0.986378
         120.517           320.028          0.955663
         120.576           322.895          0.852729
         120.635           320.365           1.02340
         120.694           320.868          0.985989
         120.753           322.215           1.05746
         120.812           319.476           1.11681
         120.871           318.641           1.12480
         120.930           319.658          0.998435
         120.989           320.800           1.28914
         121.048           320.184           1.47929
         121.107           320.001           1.26317
         121.166           317.285           1.17472
         121.225           318.571           1.09859
         121.285           319.860           1.12688
         121.344           323.614           1.22928
         121.403           323.180           1.46088
         121.462           322.550           1.67999
         121.521           320.208           1.60084
         121.580           317.641           1.65061
         121.639           314.487           1.53868
         121.698           314.822           1.67390
         121.758           316.553           2.05384
         121.817           317.945           2.20588
         121.876           315.917           1.72450
         121.935           318.322           2.31662
         121.994           320.133           2.33672
         122.054           319.477           2.18958
         122.113           319.253           1.91879
         122.172           319.028           2.48815
         122.231           319.663           2.31152
         122.291           316.637           2.34473
         122.350           318.054           3.10609
         122.409           317.231           2.39586
         122.468           317.366           2.83196
         122.528           316.297           2.41626
         122.587           315.890           2.18616
         122.646           316.966           2.44303
         122.706           317.034           2.45230
         122.765           317.895           3.09490
         122.824           318.546           2.48726
         122.884           317.423           2.05903
         122.943           315.658           2.74827
         123.003           316.233           2.07110
         123.062           317.628           2.06000
         123.121           318.416           2.06810
         123.181           316.397           2.09055
         123.240           316.386           2.08369
         123.300           316.792           2.33844
         123.359           316.633           2.14982
         123.419           316.332           1.75165
         123.478           317.314           1.91964
         123.538           315.665           1.91090
         123.597           318.569           1.42432
         123.657           318.895           1.47576
         123.716           319.955           1.53129
         123.776           319.075           1.25084
         123.835           317.944           1.26399
         123.895           320.378           1.12384
         123.954           319.577           1.42605
         124.014           323.073           1.37959
         124.073           322.257           1.21805
         124.133           336.725           1.17599
         124.193           349.849           1.07291
         124.252           340.391           1.02524
         124.312           323.827           1.36869
         124.371           320.300           1.40243
         124.431           320.576           1.50081
         124.491           320.041           1.13075
         124.550           320.440           1.22480
         124.610           320.300           1.47724
         124.670           320.477           1.29871
         124.730           321.084           1.19992
         124.789           321.948           1.34461
         124.849           321.162           1.59613
         124.909           319.269           1.07482
         124.968           319.609           1.38616
         125.028           320.707           1.32924
         125.088           319.320           1.16933
         125.148           320.142           1.20833
         125.207           320.752           1.30746
         125.267           319.652           1.51735
         125.327           320.951           1.09983
         125.387           323.285           1.28002
         125.447           320.258           1.45717
         125.507           319.051           1.36619
         125.566           319.098           1.39530
         125.626           319.429           1.50751
         125.686           318.590           1.39558
         125.746           318.852           1.33847
         125.806           318.313           1.76563
         125.866           316.193           1.56696
         125.926           318.566           1.74321
         125.986           317.690           1.79309
         126.045           317.092           1.50869
         126.105           318.352           1.62247
         126.165           319.663           2.10013
         126.225           321.225           1.55083
         126.285           321.217           1.81796
         126.345           322.439           1.66220
         126.405           321.000           1.44933
         126.465           320.209           1.79359
         126.525           320.579           2.24192
         126.585           321.554           1.72297
         126.645           321.235           2.27652
         126.705           320.799           1.23739
         126.765           319.013           1.60396
         126.825           318.788           2.31391
         126.885           322.021           1.63504
         126.946           322.528           2.08756
         127.006           321.621           1.89249
         127.066           320.648           1.76599
         127.126           321.286           1.76331
         127.186           319.936           1.99540
         127.246           319.616           2.13713
         127.306           321.244           2.00719
         127.366           320.554           1.97317
         127.427           321.774           1.97129
         127.487           322.073           2.19977
         127.547           322.249           1.92881
         127.607           322.287           2.30120
         127.667           323.072           2.15635
         127.727           323.688           2.05137
         127.788           325.596           2.19930
         127.848           326.295           1.72469
         127.908           326.433           2.19752
         127.968           326.817           1.65362
         128.029           327.789           2.12465
         128.089           326.390           1.64266
         128.149           326.523           1.63072
         128.209           327.778           1.74409
         128.270           325.764           1.34829
         128.330           327.976           1.86284
         128.390           327.187           1.45752
         128.451           326.671           1.91463
         128.511           328.758           1.66396
         128.571           328.586           1.42254
         128.632           327.457           1.88261
         128.692           328.610           1.85431
         128.752           328.180           1.90621
         128.813           327.929           1.72523
         128.873           327.662           1.83541
         128.934           325.252           1.63930
         128.994           326.590           1.86601
         129.054           326.903           1.51754
         129.115           327.206           1.89478
         129.175           327.490           1.81753
         129.236           327.541           1.60516
         129.296           329.310           1.96326
         129.357           328.705           1.92750
         129.417           328.411           1.76647
         129.478           329.511           2.04171
         129.538           326.742           1.78827
         129.599           326.540           2.20711
         129.659           326.098           1.70939
         129.720           326.942           2.01255
         129.780           325.714           1.88093
         129.841           324.553           2.13993
         129.901           324.147           2.13519
         129.962           323.203           1.67774
         130.022           323.729           1.87292
         130.083           324.953           1.59554
         130.143           324.407           2.05793
         130.204           322.931           2.33620
         130.265           324.612           2.13951
         130.325           340.676           1.43994
         130.386           358.011           1.42354
         130.447           339.711           2.20949
         130.507           322.117           2.91561
         130.568           321.228           2.19314
         130.628           319.786           2.70864
         130.689           321.378           2.44635
         130.750           322.274           2.87226
         130.811           323.686           2.04837
         130.871           324.124           2.48790
         130.932           321.564           2.62554
         130.993           321.069           3.15532
         131.053           323.426           2.60397
         131.114           322.841           2.69969
         131.175           323.301           2.69223
         131.236           323.906           3.10203
         131.296           323.093           2.44194
         131.357           324.905           2.57088
         131.418           324.910           2.73518
         131.479           326.012           2.49898
         131.539           325.253           2.99570
         131.600           324.437           2.29434
         131.661           323.704           2.18140
         131.722           324.612           2.16588
         131.783           325.978           2.65443
         131.844           327.642           2.27373
         131.904           327.858           2.13939
         131.965           326.019           2.37921
         132.026           327.807           2.00359
         132.087           326.691           1.75535
         132.148           328.557           2.05023
         132.209           326.842           2.14124
         132.270           326.331           2.06558
         132.331           325.531           2.04393
         132.392           329.131           2.14977
         132.452           328.270           1.85569
         132.513           326.992           2.19858
         132.574           325.737           1.73337
         132.635           324.684           2.04539
         132.696           323.991           1.69362
         132.757           325.267           1.47788
         132.818           325.439           1.78826
         132.879           326.143           2.01260
         132.940           327.071           1.81319
         133.001           324.717           1.65949
         133.062           326.645           1.71462
         133.123           326.754           1.88797
         133.184           328.211           1.96296
         133.245           325.868           2.20043
         133.306           324.471           1.79536
         133.367           325.406           1.70049
         133.428           326.404           1.45573
         133.490           326.235           1.93583
         133.551           327.582           1.49114
         133.612           327.718           1.77732
         133.673           329.029           1.70378
         133.734           327.087           1.79666
         133.795           326.489           1.84921
         133.856           328.405           1.81892
         133.917           325.789           1.88927
         133.978           325.811           2.14154
         134.040           327.089           1.82888
         134.101           328.229           1.63661
         134.162           326.478           1.62057
         134.223           328.550           1.66413
         134.284           328.042           1.65238
         134.345           327.868           1.95450
         134.407           329.746           1.96817
         134.468           329.079           1.91304
         134.529           330.005           1.58184
         134.590           329.152           1.67917
         134.652           329.181           1.75277
         134.713           330.545           1.50090
         134.774           330.323           2.00842
         134.835           333.485           1.94538
         134.897           329.404           1.68532
         134.958           328.504           1.34599
         135.019           329.367           1.43065
         135.080           329.788           1.59497
         135.142           329.897           1.74674
         135.203           329.755           1.36150
         135.264           330.196           1.37287
         135.326           329.682           1.35239
         135.387           331.229           1.86770
         135.448           329.112           1.49853
         135.510           326.573           1.66103
         135.571           325.721           1.57986
         135.632           326.532           1.72564
         135.694           327.028           1.63181
         135.755           328.723           2.02049
         135.817           327.506           1.61759
         135.878           326.843           1.40773
         135.939           328.290           1.74599
         136.001           330.775           2.03023
         136.062           331.468           1.77608
         136.124           330.378           2.00468
         136.185           326.775           1.88665
         136.246           329.442           1.87847
         136.308           330.337           1.41573
         136.369           330.889           1.67392
         136.431           327.990           2.32982
         136.492           328.211           2.06748
         136.554           326.114           1.75200
         136.615           327.539           2.06935
         136.677           327.806           2.63483
         136.738           325.484           1.98336
         136.800           324.829           2.42212
         136.861           324.329           2.22473
         136.923           325.581           2.27351
         136.984           324.677           2.35692
         137.046           324.963           2.46048
         137.107           328.059           2.07780
         137.169           345.372           1.29299
         137.231           359.845           1.54744
         137.292           337.097           1.79347
         137.354           327.288           1.84922
         137.415           325.994           2.33855
         137.477           324.973           2.17392
         137.539           325.349           1.51252
         137.600           324.764           2.01091
         137.662           324.043           1.73255
         137.723           325.026           2.24630
         137.785           324.876           2.00378
         137.847           324.132           1.79550
         137.908           323.821           2.25695
         137.970           325.973           2.04583
         138.032           325.134           2.14695
         138.093           324.914           1.65531
         138.155           323.499           2.43449
         138.217           322.742           1.55863
         138.278           320.275           1.60721
         138.340           322.480           2.04368
         138.402           323.382           1.63062
         138.463           326.619           1.96953
         138.525           330.606           1.87563
         138.587           325.198           1.53894
         138.649           323.117           1.72438
         138.710           321.885           1.67471
         138.772           320.730           1.90559
         138.834           321.628           1.67483
         138.896           321.357           1.86879
         138.957           320.898           2.06340
         139.019           320.034           1.63662
         139.081           322.394           1.69136
         139.143           321.688           1.63954
         139.204           319.782           1.64619
         139.266           318.682           1.81850
         139.328           318.927           1.67302
         139.390           316.635           1.38984
         139.452           316.955           1.52210
         139.514           318.093           1.48910
         139.575           317.825           1.64760
         139.637           317.042           1.63178
         139.699           317.591           1.56315
         139.761           316.139           1.57386
         139.823           318.766           1.39135
         139.885           314.225           1.29808
         139.947           313.992           1.38675
         140.008           316.235           1.50345
         140.070           316.761           1.39788
         140.132           314.229           1.63799
         140.194           312.902           1.33201
         140.256           312.367           1.66572
         140.318           311.046           1.54153
         140.380           313.578           1.60944
         140.442           315.113           1.88948
         140.504           314.316           1.60815
         140.566           312.480           1.51110
         140.628           313.801           1.66552
         140.690           314.959           1.78272
         140.752           313.928           1.72265
         140.814           315.731           1.60242
         140.876           313.220           2.29748
         140.938           313.630           2.10219
         141.000           313.440           1.67987
         141.062           312.395           2.32051
         141.124           313.254           1.88111
         141.186           312.469           2.05418
         141.248           311.938           2.21817
         141.310           311.047           1.86361
         141.372           312.997           1.94292
         141.434           314.010           2.11500
         141.496           312.461           1.86657
         141.558           314.352           1.74564
         141.620           315.679           1.70112
         141.682           317.255           2.36899
         141.744           317.823           2.47426
         141.806           315.261           2.10584
         141.868           317.246           2.20294
         141.930           315.125           1.84698
         141.992           313.976           1.96639
         142.054           315.606           2.52679
         142.116           316.580           2.22839
         142.179           316.827           2.00903
         142.241           314.559           2.42013
         142.303           316.047           1.58647
         142.365           317.047           2.24089
         142.427           317.422           2.51793
         142.489           316.531           2.48693
         142.551           318.489           2.32838
         142.614           318.735           2.45741
         142.676           317.963           2.64340
         142.738           319.055           1.80426
         142.800           319.386           2.41390
         142.862           318.638           3.27653
         142.924           317.059           3.10052
         142.987           318.899           3.17549
         143.049           326.734           1.06218
         143.111           324.782           1.40968
         143.173           321.064           1.22953
         143.235           322.138           1.27474
         143.298           321.552           1.07126
         143.360           319.469           1.14728
         143.422           320.280          0.869810
         143.484           321.501          0.966448
         143.547           318.706           1.33526
         143.609           317.296           1.18334
         143.671           316.750           1.03993
         143.733           318.782          0.768219
         143.796           316.689          0.895553
         143.858           319.224          0.985617
         143.920           319.399           1.23059
         143.982           317.961          0.818776
         144.045           322.963          0.850428
         144.107           318.386           1.08579
         144.169           318.476          0.808395
         144.232           315.146          0.850679
         144.294           318.646          0.782189
         144.356           318.012           1.11304
         144.418           316.716          0.842523
         144.481           316.715          0.715138
         144.543           316.059          0.977910
         144.605           315.150          0.917595
         144.668           318.235          0.909248
         144.730           342.249          0.387932
         144.793           356.836          0.571145
         144.855           333.619          0.592700
         144.917           316.215          0.975681
         144.980           315.107          0.641771
         145.042           318.501          0.876174
         145.104           317.402          0.896699
         145.167           319.359          0.850816
         145.229           319.232          0.810311
         145.291           317.026          0.885558
         145.354           319.540          0.976656
         145.416           319.600           1.23787
         145.479           328.354          0.739170
         145.541           321.907           1.02858
         145.604           323.206          0.910817
         145.666           318.980           1.08079
         145.728           319.619          0.906869
         145.791           319.180          0.920970
         145.853           319.020          0.937224
         145.916           318.695           1.27848
         145.978           315.428           1.20728
         146.041           318.264           1.00106
         146.103           320.500           1.20949
         146.165           318.830           1.03256
         146.228           316.583           1.06424
         146.290           317.473          0.815804
         146.353           318.385           1.21395
         146.415           317.960          0.914823
         146.478           316.032           1.16639
         146.540           314.781          0.984495
         146.603           316.230           1.01973
         146.665           314.193           1.18587
         146.728           314.663          0.974484
         146.790           313.607          0.900344
         146.853           317.071          0.799612
         146.915           316.464           1.29004
         146.978           315.677           1.26074
         147.040           319.865          0.861365
         147.103           314.342          0.805823
         147.166           315.641          0.867540
         147.228           314.732           1.13013
         147.291           313.438           1.01993
         147.353           315.613          0.750321
         147.416           314.801           1.06499
         147.478           312.926          0.961450
         147.541           312.687          0.862931
         147.603           311.968          0.786732
         147.666           314.495           1.28087
         147.729           314.554           1.27148
         147.791           314.829           1.22158
         147.854           314.630           1.14091
         147.916           315.789          0.995755
         147.979           315.047           1.23580
         148.041           314.048           1.05070
         148.104           313.379           1.13713
         148.167           311.786          0.996877
         148.229           313.671           1.21780
         148.292           314.289           1.56233
         148.354           314.168           1.11343
         148.417           314.930          0.969089
         148.480           314.383           1.28514
         148.542           312.659           1.04872
         148.605           313.841           1.40184
         148.668           313.083           1.14098
         148.730           311.486           1.32037
         148.793           310.590           1.67265
         148.856           311.415           1.28978
         148.918           310.825           1.22675
         148.981           312.617           1.02451
         149.044           310.044           1.13341
         149.106           310.705           1.47709
         149.169           310.589           1.60273
         149.232           313.016           1.10438
         149.294           311.702           1.57586
         149.357           310.131           1.40620
         149.420           307.943           1.16505
         149.482           312.992           1.40847
         149.545           311.456           1.21040
         149.608           312.001           1.71943
         149.670           311.927           1.54622
         149.733           310.750           1.27663
         149.796           312.317           1.19582
         149.858           310.156           1.28913
         149.921           309.963           1.65172
         149.984           310.604           1.48213
         150.047           310.236           1.26090
         150.109           307.888           1.02434
         150.172           309.817          0.993916
         150.235           309.628           1.35506
         150.297           307.963           1.24554
         150.360           310.198           1.08893
         150.423           309.535           1.31705
         150.486           310.495           1.03239
         150.548           311.370           1.05985
         150.611           308.952           1.10451
         150.674           309.798           1.02871
         150.737           311.012           1.05055
         150.799           310.822           1.34663
         150.862           309.896          0.974978
         150.925           306.115           1.13701
         150.988           307.788          0.870765
         151.051           308.706           1.23941
         151.113           311.183          0.962301
         151.176           310.178           1.07267
         151.239           308.091          0.952952
         151.302           310.830          0.943596
         151.364           308.361           1.32792
         151.427           310.588          0.836079
         151.490           308.572           1.24563
         151.553           308.346           1.27470
         151.616           307.629          0.973221
         151.678           309.522           1.14220
         151.741           314.083          0.949956
         151.804           310.591          0.931313
         151.867           312.588           1.04904
         151.930           309.562           1.03626
         151.992           309.098           1.07572
         152.055           310.010          0.911561
         152.118           308.348           1.31520
         152.181           307.802           1.24077
         152.244           308.122          0.865364
         152.307           309.587          0.931535
         152.369           310.597          0.793198
         152.432           306.736           1.07923
         152.495           305.902           1.21411
         152.558           306.346          0.818962
         152.621           308.069          0.914610
         152.684           307.444          0.708087
         152.746           307.363          0.985708
         152.809           307.751           1.20945
         152.872           304.234          0.872631
         152.935           311.008           1.05611
         152.998           309.280          0.925842
         153.061           309.280          0.988495
         153.123           310.955           1.25435
         153.186           320.777          0.739971
         153.249           347.847          0.574687
         153.312           348.693          0.624484
         153.375           314.858          0.643571
         153.438           309.050          0.998698
         153.501           306.812           1.14919
         153.564           310.230          0.931463
         153.626           308.839           1.12599
         153.689           309.622           1.37494
         153.752           307.096           1.21340
         153.815           306.672           1.06248
         153.878           308.461          0.907805
         153.941           307.801           1.12249
         154.004           308.015           1.18441
         154.067           306.538           1.39241
         154.130           305.178           1.24829
         154.192           305.457          0.978420
         154.255           307.646           1.00349
         154.318           305.644          0.813950
         154.381           308.060           1.12828
         154.444           303.823           1.18978
         154.507           306.392           1.47684
         154.570           308.321           1.25057
         154.633           307.547          0.975440
         154.696           308.446           1.33506
         154.759           306.160           1.27504
         154.821           307.654           1.65891
         154.884           304.414          0.882657
         154.947           302.362          0.991491
         155.010           305.285          0.841430
         155.073           298.376          0.974383
         155.136           303.303           1.27439
         155.199           304.863           1.35798
         155.262           306.971           1.01606
         155.325           304.366           1.45044
         155.388           299.222          0.880943
         155.451           302.140           1.11168
         155.514           303.374           1.40746
         155.576           305.328           1.09949
         155.639           301.813           1.34804
         155.702           301.653           1.01520
         155.765           302.806           1.41036
         155.828           305.144           1.43735
         155.891           304.033          0.953308
         155.954           303.535           1.23989
         156.017           301.644          0.955651
         156.080           301.238           1.63875
         156.143           303.520           1.07194
         156.206           306.611           1.02277
         156.269           305.916           1.23362
         156.332           302.559           1.06184
         156.395           302.620           1.61225
         156.458           301.994           1.15510
         156.521           300.654           1.24042
         156.583           299.339           1.13515
         156.646           297.169          0.853309
         156.709           297.209           1.20498
         156.772           298.227           1.13980
         156.835           299.054           1.46348
         156.898           298.319          0.865433
         156.961           297.485           1.14913
         157.024           296.975           1.11413
         157.087           298.527           1.39048
         157.150           297.844           1.52136
         157.213           299.630           1.00369
         157.276           299.694          0.892452
         157.339           297.141           1.19409
         157.402           297.347           1.54565
         157.465           297.945           1.15537
         157.528           299.515          0.701008
         157.591           297.470          0.940371
         157.654           294.763           1.03328
         157.717           286.569           1.02623
         157.780           281.820          0.959578
         157.843           296.818          0.830474
         157.905           294.388          0.913665
         157.968           294.671          0.854252
         158.031           293.984          0.966274
         158.094           292.955           1.26509
         158.157           292.239          0.766344
         158.220           295.277           1.14858
         158.283           294.983          0.875717
         158.346           295.351           1.28337
         158.409           295.969           1.11606
         158.472           295.796           1.12283
         158.535           296.143           1.43159
         158.598           298.416           1.06120
         158.661           296.318          0.939496
         158.724           297.231           1.28029
         158.787           297.750           1.09290
         158.850           294.246           1.34857
         158.913           295.771           1.04439
         158.976           293.344          0.914897
         159.039           294.809           1.63036
         159.102           294.297           1.18227
         159.165           295.719          0.823861
         159.228           295.188           1.21646
         159.291           295.645          0.866200
         159.354           296.132           1.24720
         159.416           298.526           1.51065
         159.479           297.024           1.18665
         159.542           297.575           1.56198
         159.605           295.821          0.999633
         159.668           294.618           1.12229
         159.731           294.296           1.26751
         159.794           295.873           1.59769
         159.857           296.906           1.58918
         159.920           296.670           1.47292
         159.983           293.510          0.865841
         160.046           292.386           1.16936
         160.109           291.783          0.941486
         160.172           294.245           1.35058
         160.235           295.933           1.36860
         160.298           291.722           1.17546
         160.361           291.833          0.982381
         160.424           290.880          0.805386
         160.487           292.929           1.30204
         160.550           292.835           1.25362
         160.613           291.748           1.09882
         160.676           291.637           1.15764
         160.738           292.231           1.14220
         160.801           293.392           1.26307
         160.864           294.333          0.892927
         160.927           293.537          0.697901
         160.990           292.381           1.16958
         161.053           293.594          0.969589
         161.116           294.915           1.09255
         161.179           292.117          0.692074
         161.242           295.213          0.901872
         161.305           292.627           1.12418
         161.368           294.737           1.09897
         161.431           293.206           1.11732
         161.494           292.629           1.18508
         161.557           294.161           1.04653
         161.620           288.973          0.696301
         161.683           293.364          0.922173
         161.745           296.100          0.754414
         161.808           294.644          0.858432
         161.871           296.378          0.932215
         161.934           293.390          0.856619
         161.997           292.636          0.868401
         162.060           291.933          0.957725
         162.123           292.172          0.607185
         162.186           291.434          0.921016
         162.249           290.523          0.806425
         162.312           294.959          0.941276
         162.375           293.910          0.707072
         162.438           293.854          0.789559
         162.500           294.335          0.400924
         162.563           288.167          0.963212
         162.626           293.027          0.788129
         162.689           295.913          0.934326
         162.752           322.928          0.613619
         162.815           341.813          0.411386
         162.878           323.277          0.410568
         162.941           297.423          0.978117
         163.004           296.468          0.733608
         163.066           295.888          0.829646
         163.129           299.750          0.909405
         163.192           294.318          0.777334
         163.255           293.652          0.618340
         163.318           293.618           1.09175
         163.381           299.148          0.865049
         163.444           299.746          0.910532
         163.507           292.793          0.774476
         163.570           293.170          0.960437
         163.632           292.603          0.804310
         163.695           292.842          0.947962
         163.758           288.949          0.833131
         163.821           290.293          0.898888
         163.884           291.667          0.744279
         163.947           292.926          0.887933
         164.010           294.708          0.772564
         164.072           290.352          0.958035
         164.135           293.179          0.578759
         164.198           289.506          0.858469
         164.261           289.604           1.23512
         164.324           289.093          0.962442
         164.387           286.174          0.801454
         164.449           286.961           1.17956
         164.512           286.194           1.08459
         164.575           285.321           1.08387
         164.638           282.371           1.15930
         164.701           282.623           1.48957
         164.764           284.785           1.03452
         164.826           285.296           1.05433
         164.889           284.432           1.08907
         164.952           289.426          0.715457
         165.015           287.760          0.828011
         165.078           290.352          0.730055
         165.141           288.736          0.950593
         165.203           293.217          0.768570
         165.266           288.250          0.884060
         165.329           286.377           1.02062
         165.392           286.726          0.901470
         165.454           289.471          0.981752
         165.517           286.465          0.986716
         165.580           286.971          0.844241
         165.643           286.030          0.961279
         165.706           285.513          0.825128
         165.768           288.028           1.00892
         165.831           287.259          0.551758
         165.894           284.979          0.781846
         165.957           286.021          0.654652
         166.019           286.736           1.04589
         166.082           287.137          0.839120
         166.145           287.404          0.748671
         166.208           287.801          0.735870
         166.270           285.888          0.806303
         166.333           289.659          0.961713
         166.396           289.388          0.865042
         166.459           287.939          0.971748
         166.521           287.344          0.761779
         166.584           288.636          0.881379
         166.647           285.525          0.895174
         166.710           286.308          0.833515
         166.772           287.065          0.467656
         166.835           284.036          0.918990
         166.898           284.151          0.863243
         166.960           284.682          0.945420
         167.023           280.026          0.739490
         167.086           280.189           1.14644
         167.149           280.809          0.746555
         167.211           279.191          0.919920
         167.274           277.671           1.08615
         167.337           277.299          0.958875
         167.399           278.787          0.887854
         167.462           276.688          0.701485
         167.525           277.589          0.749626
         167.587           280.418           1.14501
         167.650           279.901          0.680115
         167.713           279.615           1.03439
         167.775           280.660          0.828272
         167.838           280.216          0.784169
         167.901           282.315          0.699379
         167.963           279.862          0.844539
         168.026           283.335          0.651012
         168.088           285.617          0.820631
         168.151           287.698          0.975957
         168.214           284.834          0.783321
         168.276           285.278          0.712874
         168.339           284.660          0.908659
         168.402           285.543          0.742379
         168.464           285.183          0.643489
         168.527           283.716          0.562383
         168.589           285.454          0.932098
         168.652           284.777          0.878795
         168.714           287.754          0.762281
         168.777           284.953          0.852370
         168.840           285.933          0.732015
         168.902           283.675          0.557741
         168.965           280.585          0.845499
         169.027           279.881          0.614946
         169.090           281.403          0.638921
         169.152           280.878          0.631858
         169.215           279.005           1.03326
         169.278           280.775          0.856306
         169.340           283.984          0.782239
         169.403           280.230          0.948110
         169.465           281.865          0.817500
         169.528           281.034          0.646088
         169.590           282.319          0.627395
         169.653           280.574          0.861400
         169.715           280.114          0.965221
         169.778           281.422          0.826007
         169.840           277.355           1.22488
         169.903           280.165          0.764181
         169.965           277.770          0.780065
         170.028           277.645          0.655595
         170.090           273.955          0.835689
         170.152           276.227           1.20091
         170.215           274.857          0.977201
         170.277           274.173          0.929450
         170.340           272.745           1.03441
         170.402           274.517           1.40584
         170.465           272.602          0.877194
         170.527           272.240          0.980251
         170.590           271.242          0.974317
         170.652           271.295          0.819241
         170.714           271.532           1.02159
         170.777           273.676           1.08915
         170.839           273.829          0.918911
         170.902           273.385          0.997203
         170.964           271.831          0.739840
         171.026           275.071          0.920926
         171.089           271.764          0.883535
         171.151           272.306          0.801734
         171.213           274.035          0.672635
         171.276           270.210          0.803647
         171.338           271.550          0.794107
         171.401           270.353          0.672157
         171.463           268.627          0.868065
         171.525           265.864          0.990322
         171.588           267.691          0.755337
         171.650           269.234          0.709185
         171.712           265.435          0.744802
         171.774           266.447           1.08552
         171.837           265.744          0.949262
         171.899           261.338          0.912315
         171.961           264.350          0.748732
         172.024           263.000          0.605814
         172.086           262.289          0.651649
         172.148           263.577           1.23868
         172.210           261.456          0.712484
         172.273           260.519          0.871988
         172.335           261.042          0.944444
         172.397           257.267          0.942503
         172.459           256.322           1.01618
         172.522           258.487          0.947832
         172.584           260.395           1.04200
         172.646           258.593          0.810724
         172.708           258.513           1.44156
         172.770           260.681          0.920044
         172.833           259.066          0.739087
         172.895           259.569          0.819596
         172.957           259.202          0.889666
         173.019           260.967          0.736093
         173.081           259.978          0.761228
         173.143           264.598          0.717042
         173.206           262.238           1.09287
         173.268           262.103          0.781150
         173.330           259.877          0.757760
         173.392           262.528          0.795426
         173.454           262.778           1.05570
         173.516           267.627          0.718118
         173.578           293.213          0.400995
         173.640           314.204          0.806421
         173.703           282.765          0.607377
         173.765           258.484          0.898305
         173.827           257.401          0.837103
         173.889           258.213          0.836947
         173.951           257.811          0.747650
         174.013           264.062          0.848276
         174.075           259.269          0.555422
         174.137           260.479          0.742041
         174.199           261.087          0.877550
         174.261           259.781          0.755732
         174.323           258.778          0.771207
         174.385           259.231          0.658068
         174.447           258.584          0.846912
         174.509           267.042          0.674423
         174.571           281.428          0.710093
         174.633           280.418          0.640981
         174.695           272.258          0.738841
         174.757           262.717           1.12928
         174.819           262.338          0.825602
         174.881           260.147           1.06036
         174.943           260.682          0.958278
         175.005           262.015          0.733346
         175.067           263.520           1.09503
         175.128           265.012          0.935183
         175.190           263.375          0.911793
         175.252           260.953          0.936686
         175.314           261.358           1.21608
         175.376           258.722          0.841964
         175.438           255.201          0.913848
         175.500           256.982          0.692259
         175.562           255.273          0.992513
         175.623           257.118          0.892379
         175.685           255.936          0.988655
         175.747           255.279          0.937199
         175.809           253.205           1.05059
         175.871           256.977          0.938576
         175.932           259.617          0.816762
         175.994           256.453          0.669527
         176.056           259.827          0.749097
         176.118           258.428          0.717548
         176.180           259.472          0.645747
         176.241           260.695          0.533692
         176.303           258.125          0.667831
         176.365           254.818          0.536703
         176.426           253.071          0.678693
         176.488           253.998          0.625936
         176.550           252.885          0.547077
         176.612           252.114          0.691390
         176.673           252.134          0.737818
         176.735           254.819          0.544789
         176.797           257.214          0.576684
         176.858           250.179          0.721676
         176.920           250.600          0.531083
         176.982           250.433          0.630042
         177.043           249.407          0.494338
         177.105           250.722          0.612466
         177.166           248.745          0.656242
         177.228           248.008          0.582058
         177.290           248.540          0.792939
         177.351           249.034          0.669389
         177.413           250.886          0.573472
         177.474           250.662          0.686960
         177.536           247.065          0.669730
         177.597           248.577          0.763111
         177.659           251.762          0.708418
         177.720           250.440          0.768163
         177.782           248.686          0.837843
         177.843           253.554          0.672429
         177.905           249.298          0.729186
         177.966           253.275          0.521264
         178.028           251.822          0.897142
         178.089           248.360          0.781046
         178.151           248.758          0.592534
         178.212           245.269          0.883308
         178.274           247.709           1.06184
         178.335           242.448          0.637333
         178.397           242.794          0.815181
         178.458           247.497          0.883569
         178.519           244.562          0.771760
         178.581           247.430          0.729403
         178.642           250.102          0.869532
         178.703           251.150          0.860937
         178.765           249.275          0.840963
         178.826           252.334          0.716554
         178.887           254.860           1.00528
         178.949           249.797          0.668032
         179.010           252.655          0.710453
         179.071           254.930          0.725605
         179.133           254.430          0.806313
         179.194           255.041           1.00795
         179.255           256.803          0.801129
         179.316           259.656          0.677793
         179.378           258.489          0.505061
         179.439           267.250          0.737239
         179.500           291.154          0.464777
         179.561           284.041          0.432001
         179.623           267.555          0.641622
         179.684           257.981          0.600769
         179.745           256.786          0.761804
         179.806           259.322          0.718609
         179.867           262.829          0.493650
         179.928           257.743          0.567509
         179.990           256.319          0.734662
         180.051           255.396          0.533028
         180.112           256.806          0.523426
         180.173           255.219          0.811589
         180.234           252.956          0.719065
         180.295           253.314          0.704841
         180.356           256.971          0.542408
         180.417           257.071          0.790949
         180.478           255.788          0.626530
         180.539           257.313          0.516014
         180.600           254.255          0.663862
         180.661           250.586          0.705086
         180.722           252.926          0.726521
         180.783           253.041          0.630456
         180.844           255.839          0.781241
         180.905           251.257          0.586142
         180.966           255.895          0.525643
         181.027           258.668          0.651310
         181.088           253.769          0.770525
         181.149           257.116          0.640487
         181.210           261.088          0.801040
         181.271           257.544          0.794260
         181.331           254.843          0.688979
         181.392           259.109          0.605579
         181.453           255.932          0.773281
         181.514           257.446          0.874680
         181.575           254.433          0.687333
         181.636           253.917          0.576920
         181.696           251.500          0.454563
         181.757           253.792          0.731477
         181.818           254.597          0.855534
         181.879           254.238          0.575976
         181.939           255.028          0.528358
         182.000           257.188          0.730608
         182.061           259.041          0.787455
         182.122           257.662          0.475862
         182.182           261.439          0.719848
         182.243           259.164          0.773882
         182.304           260.250          0.811423
         182.364           259.455          0.532282
         182.425           259.088          0.452978
         182.486           258.435          0.569541
         182.546           263.748          0.540075
         182.607           261.287          0.679507
         182.667           261.807          0.526631
         182.728           259.951          0.698967
         182.789           262.332          0.921382
         182.849           261.394          0.892333
         182.910           267.043          0.543092
         182.970           265.829          0.744964
         183.031           265.701          0.648475
         183.091           262.141          0.757244
         183.152           263.743          0.554662
         183.212           259.830          0.535374
         183.273           261.163          0.850524
         183.333           260.213          0.768886
         183.394           262.566          0.751247
         183.454           261.134          0.706647
         183.514           255.777          0.692460
         183.575           251.705          0.727749
         183.635           256.852          0.723280
         183.696           251.420          0.656731
         183.756           250.679          0.569629
         183.816           249.714          0.652764
         183.877           250.619          0.629954
         183.937           248.562          0.466621
         183.997           248.689          0.542217
         184.058           250.422          0.642097
         184.118           251.077          0.576947
         184.178           249.457          0.411995
         184.238           253.486          0.507485
         184.299           250.934          0.455068
         184.359           253.439          0.461501
         184.419           258.634          0.424093
         184.479           257.882          0.452518
         184.539           257.937          0.407439
         184.599           261.582          0.565565
         184.660           260.913          0.301215
         184.720           262.038          0.400087
         184.780           264.525          0.490256
         184.840           265.057          0.336273
         184.900           261.174          0.413107
         184.960           257.686          0.414901
         185.020           252.630          0.358032
         185.080           252.089          0.574883
         185.140           257.090          0.495472
         185.200           257.114          0.404540
         185.260           260.719          0.481805
         185.320           258.893          0.450874
         185.380           260.579          0.443100
         185.440           257.608          0.315770
         185.500           261.908          0.645389
         185.560           256.417          0.238348
         185.620           257.849          0.414773
         185.680           259.678          0.417424
         185.740           256.448          0.406633
         185.800           256.676          0.453846
         185.859           257.942          0.400134
         185.919           277.720          0.186680
         185.979           316.771          0.228921
         186.039           312.335          0.183369
         186.099           265.837          0.366666
         186.158           253.378          0.413906
         186.218           250.879          0.473495
         186.278           249.259          0.599984
         186.338           248.322          0.410635
         186.397           251.374          0.429459
         186.457           253.394          0.463101
         186.517           252.515          0.428338
         186.576           250.242          0.295353
         186.636           249.876          0.366453
         186.696           249.328          0.301234
         186.755           249.172          0.294831
         186.815           248.916          0.389614
         186.875           245.813          0.308592
         186.934           249.279          0.407442
         186.994           253.117          0.399209
         187.053           244.711          0.432042
         187.113           253.410          0.364375
         187.172           252.826          0.358209
         187.232           248.706          0.283576
         187.291           246.287          0.393348
         187.351           241.168          0.292374
         187.410           243.505          0.352191
         187.470           244.132          0.319040
         187.529           240.787          0.373117
         187.588           243.914          0.407403
         187.648           241.256          0.350219
         187.707           242.981          0.330460
         187.766           242.641          0.312148
         187.826           242.890          0.271011
         187.885           238.147          0.362807
         187.944           242.577          0.375108
         188.004           241.573          0.411515
         188.063           239.601          0.353944
         188.122           238.228          0.357215
         188.181           243.592          0.288480
         188.241           240.640          0.346159
         188.300           246.932          0.390573
         188.359           245.523          0.314766
         188.418           241.929          0.281417
         188.477           244.575          0.256070
         188.536           240.130          0.431019
         188.596           238.903          0.249520
         188.655           239.419          0.287361
         188.714           234.277          0.307301
         188.773           233.198          0.323575
         188.832           234.914          0.313952
         188.891           234.372          0.394794
         188.950           235.292          0.337098
         189.009           228.834          0.424107
         189.068           235.657          0.468559
         189.127           224.672          0.493738
         189.186           229.426          0.490817
         189.245           234.060          0.335081
         189.304           232.711          0.280985
         189.362           230.260          0.384015
         189.421           233.952          0.333652
         189.480           229.598          0.284485
         189.539           230.974          0.263494
         189.598           229.990          0.273340
         189.657           225.616          0.299019
         189.715           221.765          0.280873
         189.774           225.190          0.323727
         189.833           223.822          0.348407
         189.892           215.725          0.308963
         189.950           221.519          0.254566
         190.009           217.902          0.240336
         190.068           213.155          0.308400
         190.126           215.668          0.258388
         190.185           217.714          0.446348
         190.244           214.029          0.369517
         190.302           214.054          0.276959
